timestamp,EEG1,EEG2,EEG3,EEG4,EOG
0.000000,3.395735,10.586395,13.300108,10.541709,43.099790
0.004000,5.869523,11.865066,12.573029,8.672250,43.930101
0.008000,8.014119,12.314468,11.296560,6.949297,44.651435
0.012000,9.576294,12.013292,9.807887,5.551469,45.254205
0.016000,10.431861,11.178252,8.393302,4.457864,45.729902
0.020000,10.604491,10.086364,7.202517,3.493925,46.071526
0.024000,10.242770,8.985338,6.219361,2.441074,46.273696
0.028000,9.565391,8.019591,5.295866,1.160596,46.332766
0.032000,8.790123,7.197263,4.238004,-0.314999,46.246990
0.036000,8.068306,6.406174,2.907898,-1.763193,46.016574
0.040000,7.444804,5.474365,1.306590,-2.832133,45.643675
0.044000,6.854987,4.252333,-0.395483,-3.162339,45.132385
0.048000,6.158175,2.689836,-1.892731,-2.521224,44.488560
0.052000,5.198403,0.880213,-2.832674,-0.900742,43.719869
0.056000,3.871513,-0.944692,-2.929446,1.460111,42.835393
0.060000,2.179313,-2.467482,-2.061722,4.138310,41.845500
0.064000,0.251174,-3.371125,-0.321874,6.652299,40.761629
0.068000,-1.672686,-3.431098,2.001953,8.606744,39.595865
0.072000,-3.292965,-2.583819,4.505161,9.800426,38.361026
0.076000,-4.325296,-0.950007,6.781518,10.263729,37.069845
0.080000,-4.572816,1.195159,8.534030,10.210152,35.735059
0.084000,-3.978431,3.495734,9.645533,9.925683,34.368901
0.088000,-2.640572,5.609509,10.185815,9.639020,32.983220
0.092000,-0.787777,7.294675,10.355929,9.424259,31.588770
0.096000,1.279741,8.460639,10.390201,9.173754,30.195313
0.100000,3.265911,9.169431,10.453331,8.651426,28.811426
0.104000,4.949140,9.588225,10.569776,7.605488,27.444304
0.108000,6.227154,9.910605,10.611271,5.895604,26.100024
0.112000,7.125890,10.273171,10.347255,3.583849,24.783067
0.116000,7.768135,10.696257,9.539584,0.951588,23.496657
0.120000,8.315678,11.068586,8.048218,-1.565349,22.242809
0.124000,8.900979,11.181800,5.907781,-3.504651,21.022315
0.128000,9.571112,10.803160,3.347809,-4.518875,19.835244
0.132000,10.261459,9.763324,0.745252,-4.482378,18.680669
0.136000,10.807686,8.028948,-1.473914,-3.521163,17.557126
0.140000,10.992263,5.735992,-2.953407,-1.958883,16.462764
0.144000,10.612658,3.172465,-3.504359,-0.197630,15.395715
0.148000,9.550492,0.711584,-3.151459,1.420010,14.354017
0.152000,7.819728,-1.280865,-2.110013,2.716450,13.335984
0.156000,5.580038,-2.538954,-0.705165,3.713616,12.340361
0.160000,3.109365,-2.960034,0.739133,4.585688,11.366388
0.164000,0.743802,-2.619505,2.001666,5.551390,10.414155
0.168000,-1.200355,-1.733682,3.022180,6.748601,9.484321
0.172000,-2.498481,-0.583281,3.895590,8.143919,8.578396
0.176000,-3.064312,0.576839,4.807205,9.513400,7.698587
0.180000,-2.958508,1.592666,5.933099,10.503560,6.848034
0.184000,-2.357599,2.447176,7.343961,10.753308,6.030337
0.188000,-1.493139,3.245839,8.947603,10.028505,5.249731
0.192000,-0.579599,4.158315,10.493350,8.319518,4.510820
0.196000,0.247143,5.336626,11.638336,5.864002,3.818440
0.200000,0.962400,6.837179,12.053664,3.084574,3.177592
0.204000,1.647466,8.575048,11.534478,0.461997,2.593068
0.208000,2.448878,10.326448,10.074749,-1.608224,2.069363
0.212000,3.514580,11.779450,7.880816,-2.924578,1.610541
0.216000,4.928126,12.619228,5.317714,-3.516573,1.219972
0.220000,6.660205,12.619783,2.806888,-3.596209,0.900338
0.224000,8.556128,11.714107,0.707570,-3.448291,0.653381
0.228000,10.360558,10.019250,-0.775665,-3.299619,0.479893
0.232000,11.776404,7.808530,-1.630877,-3.222563,0.379673
0.236000,12.538899,5.439415,-2.010029,-3.107862,0.351534
0.240000,12.486315,3.258453,-2.146722,-2.717943,0.393297
0.244000,11.603741,1.514218,-2.250547,-1.799940,0.501914
0.248000,10.029181,0.304233,-2.417110,-0.212491,0.673532
0.252000,8.019450,-0.428784,-2.587066,1.982784,0.903689
0.256000,5.885674,-0.850978,-2.568397,4.504056,1.187402
0.260000,3.916224,-1.159802,-2.114420,6.915279,1.519397
0.264000,2.310628,-1.499406,-1.029109,8.753050,1.894341
0.268000,1.141754,-1.900082,0.738573,9.668964,2.306949
0.272000,0.357115,-2.260295,3.046432,9.535596,2.752311
0.276000,-0.183356,-2.378853,5.575216,8.477520,3.225872
0.280000,-0.644517,-2.026227,7.907535,6.816641,3.723852
0.284000,-1.148594,-1.031953,9.641558,4.953553,4.243210
0.288000,-1.724272,0.641861,10.503682,3.229319,4.781862
0.292000,-2.288409,2.864573,10.420574,1.820845,5.338595
0.296000,-2.666078,5.353609,9.528749,0.705580,5.913307
0.300000,-2.643512,7.738069,8.117463,-0.290995,6.506860
0.304000,-2.037595,9.651363,6.526967,-1.387237,7.121095
0.308000,-0.761905,10.824190,5.037268,-2.720361,7.758716
0.312000,1.132110,11.149319,3.787049,-4.255719,8.423084
0.316000,3.451622,10.698930,2.748480,-5.767778,9.118193
0.320000,5.898315,9.688815,1.767148,-6.901892,9.848414
0.324000,8.134229,8.403204,0.649797,-7.294877,10.618217
0.328000,9.860660,7.104072,-0.733442,-6.710854,11.432102
0.332000,10.884910,5.954719,-2.368910,-5.138924,12.294058
0.336000,11.159867,4.981304,-4.074935,-2.815395,13.207658
0.340000,10.782484,4.085049,-5.540662,-0.161610,14.175676
0.344000,9.954265,3.098511,-6.417961,2.342316,15.199912
0.348000,8.916018,1.867704,-6.434352,4.300270,16.280844
0.352000,7.875566,0.329700,-5.488444,5.510928,17.417779
0.356000,6.951173,-1.439048,-3.693343,6.002813,18.608543
0.360000,6.146966,-3.222806,-1.353007,5.987078,19.849448
0.364000,5.366088,-4.715490,1.121747,5.746646,21.135370
0.368000,4.458579,-5.604326,3.328476,5.507048,22.459455
0.372000,3.286773,-5.662186,4.983428,5.338941,23.813681
0.376000,1.789516,-4.818520,5.986175,5.131359,25.188623
0.380000,0.022359,-3.186559,6.421893,4.645520,26.573847
0.384000,-1.836601,-1.037892,6.500417,3.627143,27.957700
0.388000,-3.521315,1.269333,6.456659,1.934365,29.328127
0.392000,-4.740918,3.384159,6.448625,-0.371555,30.672516
0.396000,-5.255189,5.051497,6.490780,-3.008739,31.978129
0.400000,-4.939664,6.167162,6.446711,-5.540685,33.232379
0.404000,-3.821869,6.783459,6.084005,-7.502829,34.422877
0.408000,-2.077347,7.065790,5.171348,-8.545440,35.538131
0.412000,0.012785,7.215153,3.582847,-8.539632,36.567456
0.416000,2.131749,7.383467,1.370532,-7.608262,37.501332
0.420000,4.003359,7.610918,-1.221105,-6.071326,38.331594
0.424000,5.453157,7.805796,-3.806832,-4.327953,39.051414
0.428000,6.438642,7.774197,-5.963423,-2.718156,39.655701
0.432000,7.038378,7.290063,-7.347214,-1.417217,40.140956
0.436000,7.407442,6.181719,-7.789072,-0.401986,40.505361
0.440000,7.711081,4.407363,-7.334070,0.502194,40.748668
0.444000,8.059406,2.091463,-6.213650,1.513276,40.872241
0.448000,8.462262,-0.488432,-4.760358,2.768061,40.878889
0.452000,8.819318,-2.964114,-3.296026,4.230947,40.772678
0.456000,8.947909,-4.968402,-2.032209,5.675084,40.558796
0.460000,8.641207,-6.228552,-1.017058,6.743862,40.243357
0.464000,7.738668,-6.633176,-0.146152,7.072817,39.833166
0.468000,6.187214,-6.250888,0.768649,6.424382,39.335464
0.472000,4.074728,-5.296858,1.898404,4.786032,38.757787
0.476000,1.624127,-4.058585,3.302952,2.392786,38.107622
0.480000,-0.850315,-2.805028,4.877499,-0.334832,37.392434
0.484000,-3.014246,-1.708407,6.362999,-2.916942,36.619254
0.488000,-4.590827,-0.803993,7.416227,-4.957958,35.794654
0.492000,-5.422964,0.000424,7.717850,-6.256041,34.924579
0.496000,-5.503077,0.869765,7.080546,-6.838719,34.014468
0.500000,-4.962789,1.960305,5.519307,-6.916056,33.068901
0.504000,-4.025622,3.341371,3.259177,-6.769491,32.091818
0.508000,-2.937588,4.945074,0.676380,-6.622958,31.086479
0.512000,-1.896575,6.564020,-1.807527,-6.545323,30.055508
0.516000,-1.001514,7.898002,-3.842311,-6.424016,29.001211
0.520000,-0.235641,8.636991,-5.239369,-6.018778,27.925304
0.524000,0.511627,8.552719,-6.003457,-5.074222,26.829355
0.528000,1.391715,7.571193,-6.298991,-3.447374,25.714732
0.532000,2.529525,5.802075,-6.363978,-1.199329,24.583087
0.536000,3.963359,3.514465,-6.404260,1.387897,23.436034
0.540000,5.611602,1.067590,-6.506460,3.877400,22.275623
0.544000,7.276231,-1.183636,-6.601574,5.803783,21.104308
0.548000,8.684554,-2.977793,-6.492423,6.816125,19.925045
0.552000,9.556491,-4.203689,-5.935044,6.783794,18.741580
0.556000,9.680058,-4.909114,-4.744404,5.828010,17.558096
0.560000,8.970268,-5.258254,-2.885976,4.267399,16.379479
0.564000,7.496601,-5.455538,-0.519027,2.499212,15.211201
0.568000,5.469246,-5.660467,2.025867,0.861968,14.059211
0.572000,3.189361,-5.923057,4.328571,-0.469806,12.930075
0.576000,0.974570,-6.161446,5.995858,-1.520044,11.830435
0.580000,-0.915346,-6.189152,6.770990,-2.463586,10.767171
0.584000,-2.334370,-5.783519,6.601646,-3.518386,9.747021
0.588000,-3.270311,-4.772068,5.643104,-4.820437,8.776735
0.592000,-3.826921,-3.108324,4.196267,-6.333059,7.862412
0.596000,-4.171559,-0.910902,2.603427,-7.827979,7.009656
0.600000,-4.467429,1.548085,1.138052,-8.947343,6.223244
0.604000,-4.810610,3.903503,-0.073131,-9.324657,5.507009
0.608000,-5.191995,5.787537,-1.069152,-8.720794,4.863803
0.612000,-5.495512,6.924827,-2.010846,-7.121650,4.295167
0.616000,-5.533657,7.199625,-3.090189,-4.761258,3.801426
0.620000,-5.109841,6.677029,-4.428166,-2.058865,3.381594
0.624000,-4.088282,5.571497,-5.999185,0.506387,3.033376
0.628000,-2.450258,4.173859,-7.610416,2.538639,2.753281
0.632000,-0.318707,2.759652,-8.946809,3.835487,2.536583
0.636000,2.056771,1.510196,-9.665170,4.424173,2.377544
0.640000,4.351386,0.469793,-9.507477,4.513358,2.269500
0.644000,6.239428,-0.446975,-8.392371,4.383178,2.205123
0.648000,7.470544,-1.402408,-6.453560,4.255703,2.176566
0.652000,7.925405,-2.555176,-4.009975,4.198203,2.175691
0.656000,7.636457,-3.980771,-1.478066,4.096571,2.194352
0.660000,6.767855,-5.619948,0.745422,3.708806,2.224551
0.664000,5.561603,-7.273468,2.389656,2.778539,2.258743
0.668000,4.265197,-8.647645,3.371523,1.161986,2.289974
0.672000,3.063516,-9.434869,3.791085,-1.080324,2.312134
0.676000,2.034536,-9.406002,3.866739,-3.666620,2.320065
0.680000,1.141052,-8.483703,3.833147,-6.158839,2.309714
0.684000,0.260306,-6.773621,3.841213,-8.091191,2.278205
0.688000,-0.757862,-4.542472,3.895327,-9.111254,2.223889
0.692000,-2.023600,-2.150013,3.851276,-9.087140,2.146333
0.696000,-3.552014,0.045180,3.475379,-8.138271,2.046304
0.700000,-5.236465,1.775147,2.543654,-6.581640,1.925665
0.704000,-6.861937,2.922540,0.944486,-4.812919,1.787270
0.708000,-8.153274,3.530150,-1.252541,-3.169252,1.634772
0.712000,-8.846047,3.761244,-3.788119,-1.824200,1.472515
0.716000,-8.759389,3.823546,-6.270782,-0.752933,1.305246
0.720000,-7.849141,3.884085,-8.280402,0.219595,1.137981
0.724000,-6.225553,4.002757,-9.487106,1.311004,0.975748
0.728000,-4.130613,4.107556,-9.741662,2.656503,0.823342
0.732000,-1.879836,4.019563,-9.109669,4.218764,0.685184
0.736000,0.212797,3.519873,-7.838039,5.767924,0.565097
0.740000,1.908296,2.435089,-6.265910,6.944346,0.466149
0.744000,3.090959,0.714383,-4.712129,7.380139,0.390515
0.748000,3.779898,-1.529686,-3.378229,6.834357,0.339409
0.752000,4.102013,-4.030739,-2.300095,5.291219,0.313008
0.756000,4.234432,-6.426252,-1.364362,2.983505,0.310457
0.760000,4.335726,-8.348953,-0.380315,0.329595,0.329874
0.764000,4.486595,-9.520432,0.817581,-2.191883,0.368448
0.768000,4.659129,-9.820706,2.277869,-4.185589,0.422510
0.772000,4.723410,-9.311363,3.883871,-5.448812,0.487734
0.776000,4.490041,-8.206215,5.368351,-6.007590,0.559204
0.780000,3.775924,-6.798690,6.388711,-6.069886,0.631732
0.784000,2.472316,-5.371051,6.635905,-5.914211,0.699932
0.788000,0.594823,-4.113318,5.940543,-5.761194,0.758547
0.792000,-1.700095,-3.078915,4.338779,-5.676450,0.802577
0.796000,-4.140198,-2.189113,2.073729,-5.544057,0.827496
0.800000,-6.395002,-1.284253,-0.468134,-5.120755,0.829480
0.804000,-8.152924,-0.203388,-2.865928,-4.148987,0.805483
0.808000,-9.193855,1.135246,-4.779974,-2.483995,0.753448
0.812000,-9.437980,2.680781,-6.037578,-0.186073,0.672347
0.816000,-8.957111,4.242903,-6.660336,2.462910,0.562256
0.820000,-7.945583,5.534255,-6.824549,5.024592,0.424368
0.824000,-6.659782,6.250114,-6.772141,7.032124,0.260954
0.828000,-5.344710,6.160563,-6.704720,8.131973,0.075294
0.832000,-4.169459,5.184909,-6.699613,8.190476,-0.128385
0.836000,-3.189746,3.424812,-6.678386,7.325501,-0.345138
0.840000,-2.348291,1.144420,-6.439251,5.852303,-0.569372
0.844000,-1.512194,-1.296353,-5.741612,4.164789,-0.795152
0.848000,-0.534900,-3.534946,-4.411850,2.598921,-1.016247
0.852000,0.677506,-5.297970,-2.432117,1.326940,-1.226552
0.856000,2.116267,-6.461194,0.021753,0.323333,-1.420126
0.860000,3.651949,-7.062824,2.608104,-0.587213,-1.591523
0.864000,5.055918,-7.264791,4.905916,-1.622451,-1.735908
0.868000,6.054735,-7.278229,6.530903,-2.916727,-1.849252
0.872000,6.403808,-7.277455,7.244133,-4.431752,-1.928512
0.876000,5.956496,-7.332232,7.014306,-5.936439,-1.971676
0.880000,4.710003,-7.380502,6.014941,-7.069802,-1.977872
0.884000,2.813884,-7.251145,4.558024,-7.462002,-1.947386
0.888000,0.537751,-6.728704,2.986937,-6.870575,-1.881644
0.892000,-1.792728,-5.639218,1.567814,-5.278289,-1.783171
0.896000,-3.872873,-3.927444,0.415474,-2.916500,-1.655466
0.900000,-5.488120,-1.699632,-0.520619,-0.202598,-1.502910
0.904000,-6.554432,0.783161,-1.406995,2.385147,-1.330585
0.908000,-7.122123,3.162284,-2.433814,4.451595,-1.144101
0.912000,-7.339176,5.070650,-3.713149,5.793598,-0.949345
0.916000,-7.389781,6.226966,-5.207051,6.436623,-0.752348
0.920000,-7.425169,6.507254,-6.712624,6.587331,-0.558978
0.924000,-7.509472,5.969653,-7.910846,6.522908,-0.374818
0.928000,-7.596314,4.826886,-8.464631,6.462174,-0.204910
0.932000,-7.543961,3.375118,-8.130852,6.469039,-0.053576
0.936000,-7.164080,1.902891,-6.848474,6.426003,0.075701
0.940000,-6.289908,0.609216,-4.771449,6.088198,0.180400
0.944000,-4.841327,-0.443769,-2.233003,5.196779,0.259062
0.948000,-2.868437,-1.328131,0.345999,3.606364,0.311312
0.952000,-0.558058,-2.200763,2.574867,1.376393,0.337865
0.956000,1.798888,-3.224787,4.197315,-1.211248,0.340483
0.960000,3.871595,-4.488012,5.147171,-3.717646,0.321876
0.964000,5.367300,-5.948501,5.539378,-5.674965,0.285626
0.968000,6.099706,-7.424681,5.599990,-6.728695,0.235970
0.972000,6.030032,-8.635703,5.562964,-6.743733,0.177700
0.976000,5.268219,-9.280032,5.571788,-5.836222,0.115889
0.980000,4.035660,-9.127081,5.620704,-4.319825,0.055779
0.984000,2.599221,-8.092919,5.558106,-2.586930,0.002449
0.988000,1.197623,-6.275102,5.149747,-0.971876,-0.039278
0.992000,-0.018643,-3.935010,4.179378,0.354199,-0.065121
0.996000,-1.016966,-1.432903,2.550245,1.416975,-0.071460
1.000000,-1.873640,0.865613,0.349095,2.392707,-0.055504
1.004000,-2.729613,2.681244,-2.150815,3.498505,-0.015424
1.008000,-3.725532,3.883540,-4.551730,4.868456,0.049583
1.012000,-4.937745,4.505813,-6.438683,6.463000,0.139242
1.016000,-6.333636,4.708594,-7.495821,8.049762,0.252179
1.020000,-7.762880,4.706254,-7.594401,9.266187,0.386003
1.024000,-8.986698,4.680334,-6.820339,9.740729,0.537341
1.028000,-9.738177,4.710369,-5.435221,9.229197,0.701993
1.032000,-9.796002,4.744216,-3.784062,7.712813,0.875037
1.036000,-9.050123,4.618570,-2.181878,5.421541,1.051026
1.040000,-7.539309,4.121748,-0.819686,2.771830,1.224221
1.044000,-5.449936,3.079126,0.278874,0.241184,1.388720
1.048000,-3.074719,1.430905,1.236354,-1.775514,1.538779
1.052000,-0.744581,-0.722602,2.244892,-3.074644,1.668886
1.056000,1.249758,-3.126572,3.464165,-3.681116,1.774124
1.060000,2.721426,-5.426080,4.931626,-3.800346,1.850229
1.064000,3.620108,-7.254459,6.518538,-3.708269,1.893828
1.068000,4.025949,-8.328195,7.950713,-3.622083,1.902518
1.072000,4.105886,-8.519120,8.886704,-3.604090,1.874996
1.076000,4.048084,-7.881978,9.028622,-3.535115,1.811094
1.080000,3.994262,-6.628358,8.225614,-3.168785,1.711803
1.084000,3.990844,-5.056884,6.534588,-2.244958,1.579219
1.088000,3.973754,-3.462501,4.216415,-0.617464,1.416545
1.092000,3.791598,-2.052706,1.666516,1.654473,1.227869
1.096000,3.260375,-0.898564,-0.695439,4.289180,1.018139
1.100000,2.231937,0.065167,-2.540841,6.847400,0.792897
1.104000,0.656105,0.992779,-3.714149,8.860492,0.558152
1.108000,-1.383325,2.049014,-4.253217,9.972236,0.320167
1.112000,-3.671831,3.328187,-4.345844,10.046446,0.085158
1.116000,-5.904543,4.796951,-4.237182,9.197599,-0.140799
1.120000,-7.755849,6.282608,-4.124085,7.737363,-0.352088
1.124000,-8.956293,7.511139,-4.074352,6.056641,-0.543669
1.128000,-9.356246,8.184163,-4.000282,4.488493,-0.711269
1.132000,-8.958441,8.070597,-3.695937,3.202826,-0.851562
1.136000,-7.909621,7.083267,-2.924617,2.172945,-0.962233
1.140000,-6.454349,5.315404,-1.524712,1.222510,-1.042059
1.144000,-4.866044,3.025768,0.504801,0.134472,-1.090934
1.148000,-3.373309,0.573912,2.972161,-1.224722,-1.109856
1.152000,-2.105775,-1.671203,5.525599,-2.814463,-1.100903
1.156000,-1.072275,-3.424869,7.743719,-4.401252,-1.067072
1.160000,-0.178754,-4.550468,9.252906,-5.620908,-1.012219
1.164000,0.721410,-5.076370,9.832176,-6.100181,-0.940857
1.168000,1.760869,-5.161953,9.471411,-5.593306,-0.858004
1.172000,2.996870,-5.024607,8.362160,-4.079822,-0.768925
1.176000,4.373893,-4.853067,6.826289,-1.788329,-0.679008
1.180000,5.722742,-4.736681,5.207854,0.865664,-0.593481
1.184000,6.798404,-4.633418,3.764901,3.405098,-0.517211
1.188000,7.344441,-4.387672,2.600129,5.435427,-0.454564
1.192000,7.166569,-3.791873,1.651758,6.752914,-0.409163
1.196000,6.192814,-2.670726,0.747733,7.381575,-0.383808
1.200000,4.502955,-0.960375,-0.299489,7.525740,-0.380321
1.204000,2.317163,1.245461,-1.592796,7.459932,-0.399490
1.208000,-0.052953,3.698082,-3.082024,7.399883,-0.441037
1.212000,-2.277144,6.046325,-4.554282,7.406021,-0.503614
1.216000,-4.083180,7.924328,-5.687927,7.357652,-0.584875
1.220000,-5.314406,9.046147,-6.152365,7.006811,-0.681539
1.224000,-5.955281,9.279898,-5.720097,6.092225,-0.789512
1.228000,-6.114577,8.676639,-4.350776,4.466633,-0.904090
1.232000,-5.975533,7.446555,-2.217708,2.188689,-1.020069
1.236000,-5.727519,5.890944,0.332124,-0.459567,-1.131997
1.240000,-5.500395,4.310387,2.874579,-3.038756,-1.234346
1.244000,-5.322220,2.920815,5.026112,-5.079230,-1.321787
1.248000,-5.112275,1.802078,6.545217,-6.223858,-1.389314
1.252000,-4.711955,0.895633,7.383385,-6.334774,-1.432530
1.256000,-3.944354,0.050175,7.669746,-5.524702,-1.447728
1.260000,-2.682538,-0.901186,7.637605,-4.103878,-1.432143
1.264000,-0.907260,-2.058926,7.519743,-2.461554,-1.383978
1.268000,1.265775,-3.398564,7.451689,-0.929033,-1.302550
1.272000,3.597362,-4.756393,7.417776,0.324776,-1.188291
1.276000,5.773594,-5.865266,7.259264,1.327346,-1.042785
1.280000,7.478875,-6.430526,6.741966,2.255024,-0.868679
1.284000,8.471311,-6.220689,5.658192,3.325306,-0.669638
1.288000,8.640513,-5.145287,3.925976,4.671064,-0.450181
1.292000,8.030566,-3.293688,1.649368,6.250623,-0.215639
1.296000,6.822382,-0.921185,-0.885035,7.829123,0.028191
1.300000,5.280338,1.612758,-3.274443,9.041022,0.275093
1.304000,3.679401,3.936714,-5.109559,9.511393,0.518771
1.308000,2.234769,5.760566,-6.089958,8.992644,0.752964
1.312000,1.052997,6.941235,-6.107099,7.463023,0.971697
1.316000,0.119079,7.502519,-5.267133,5.149663,1.169538
1.320000,-0.677317,7.602373,-3.845852,2.467020,1.341697
1.324000,-1.486484,7.460960,-2.192945,-0.108756,1.484277
1.328000,-2.430953,7.274084,-0.618801,-2.182848,1.594330
1.332000,-3.548011,7.140756,0.696362,-3.551376,1.669985
1.336000,-4.759862,7.028980,1.741367,-4.237771,1.710516
1.340000,-5.881619,6.791071,2.647285,-4.445301,1.716333
1.344000,-6.665762,6.223478,3.607787,-4.446939,1.688973
1.348000,-6.870398,5.150452,4.776102,-4.456875,1.631023
1.352000,-6.331331,3.503703,6.178179,-4.533827,1.546003
1.356000,-5.016022,1.370532,7.673823,-4.555425,1.438263
1.360000,-3.043997,-1.006640,8.982282,-4.272237,1.312755
1.364000,-0.665600,-3.281209,9.764631,-3.421469,1.174904
1.368000,1.793410,-5.087867,9.734605,-1.855157,1.030364
1.372000,4.008396,-6.139019,8.760288,0.368587,0.884827
1.376000,5.729707,-6.298852,6.919569,2.967902,0.743757
1.380000,6.834151,-5.614748,4.489890,5.503142,0.612262
1.384000,7.340437,-4.295821,1.875245,7.503681,0.494858
1.388000,7.384418,-2.645168,-0.507343,8.611236,0.395293
1.392000,7.162693,-0.969359,-2.341266,8.686494,0.316447
1.396000,6.862645,0.507419,-3.487708,7.840801,0.260201
1.400000,6.600327,1.696610,-4.001268,6.382319,0.227389
1.404000,6.384914,2.649860,-4.080434,4.698955,0.217771
1.408000,6.120233,3.515656,-3.973099,3.120694,0.230041
1.412000,5.643000,4.462695,-3.870764,1.815175,0.261902
1.416000,4.786019,5.597610,-3.831538,0.754057,0.310140
1.420000,3.445465,6.904773,-3.758636,-0.239493,0.370794
1.424000,1.633306,8.229427,-3.442510,-1.382312,0.439282
1.428000,-0.504426,9.311876,-2.651042,-2.807064,0.510579
1.432000,-2.707846,9.860868,-1.234978,-4.471202,0.579487
1.436000,-4.659375,9.644795,0.790341,-6.138593,0.640741
1.440000,-6.058039,8.570074,3.217041,-7.441684,0.689314
1.444000,-6.693585,6.721586,5.684186,-8.004276,0.720558
1.448000,-6.496461,4.351498,7.771416,-7.577011,0.730455
1.452000,-5.551676,1.818488,9.116235,-6.136461,0.715719
1.456000,-4.071347,-0.503659,9.516670,-3.908151,0.673979
1.460000,-2.335508,-2.319267,8.983557,-1.305710,0.603879
1.464000,-0.616721,-3.479667,7.725988,1.195290,0.505134
1.468000,0.886742,-4.003753,6.075310,3.200435,0.378566
1.472000,2.093187,-4.047960,4.374837,4.505845,0.226103
1.476000,3.041102,-3.835226,2.874060,5.134088,0.050668
1.480000,3.855344,-3.568425,1.663278,5.287432,-0.143797
1.484000,4.687094,-3.356140,0.669941,5.237501,-0.352604
1.488000,5.647028,-3.176373,-0.282889,5.197019,-0.570363
1.492000,6.752029,-2.889502,-1.380222,5.223013,-0.791262
1.496000,7.903018,-2.296212,-2.715097,5.191329,-1.009173
1.500000,8.902173,-1.220267,-4.225299,4.851214,-1.217943
1.504000,9.503418,0.411031,-5.688518,3.938620,-1.411604
1.508000,9.483279,2.516701,-6.781026,2.304627,-1.584530
1.512000,8.710028,4.861112,-7.179899,0.006614,-1.731723
1.516000,7.191109,7.101578,-6.673629,-2.673146,-1.848879
1.520000,5.083785,8.874611,-5.242452,-5.294824,-1.932665
1.524000,2.664950,9.890595,-3.079276,-7.387040,-1.980746
1.528000,0.268625,10.009982,-0.543191,-8.590404,-1.991912
1.532000,-1.790888,9.276590,1.938831,-8.763865,-1.966096
1.536000,-3.290453,7.897977,3.991688,-8.017136,-1.904396
1.540000,-4.142288,6.179225,5.389215,-6.656963,-1.809009
1.544000,-4.399419,4.432471,6.100396,-5.069254,-1.683181
1.548000,-4.222473,2.889876,6.268528,-3.582529,-1.531029
1.552000,-3.818332,1.648935,6.133436,-2.363360,-1.357503
1.556000,-3.369594,0.664537,5.926046,-1.382505,-1.168058
1.560000,-2.976665,-0.208698,5.773705,-0.462812,-0.968592
1.564000,-2.629679,-1.141451,5.650722,0.612747,-0.765118
1.568000,-2.218484,-2.246228,5.391785,1.976329,-0.563644
1.572000,-1.578010,-3.516156,4.763378,3.584294,-0.369921
1.576000,-0.553220,-4.805960,3.566908,5.199264,-0.189198
1.580000,0.934664,-5.863202,1.735595,6.452479,-0.026120
1.584000,2.843073,-6.400471,-0.609971,6.965994,0.115527
1.588000,4.997616,-6.186064,-3.170109,6.488649,0.232833
1.592000,7.121863,-5.123293,-5.538191,4.995407,0.323965
1.596000,8.899177,-3.292746,-7.311490,2.710937,0.388156
1.600000,10.048515,-0.942914,-8.205536,0.047335,0.425734
1.604000,10.394242,1.568575,-8.132671,-2.520640,0.438101
1.608000,9.908760,3.865263,-7.218785,-4.598419,0.427641
1.612000,8.716543,5.647017,-5.753150,-5.981711,0.397665
1.616000,7.057822,6.759102,-4.089497,-6.692832,0.352186
1.620000,5.223387,7.215758,-2.532815,-6.932859,0.295846
1.624000,3.479359,7.171739,-1.251686,-6.972061,0.233640
1.628000,2.003824,6.852747,-0.245165,-7.021390,0.170765
1.632000,0.852458,6.468433,0.626126,-7.136264,0.112422
1.636000,-0.036102,6.137009,1.556634,-7.190946,0.063525
1.640000,-0.799503,5.846531,2.692920,-6.932788,0.028596
1.644000,-1.587513,5.465613,4.049321,-6.096894,0.011513
1.648000,-2.497048,4.799030,5.474462,-4.532943,0.015385
1.652000,-3.524157,3.670414,6.681802,-2.298120,0.042400
1.656000,-4.550457,2.002843,7.335460,0.325894,0.093747
1.660000,-5.368160,-0.129658,7.161861,2.898702,0.169545
1.664000,-5.736510,-2.497609,6.048195,4.948079,0.268829
1.668000,-5.453935,-4.763408,4.093050,6.113549,0.389571
1.672000,-4.423400,-6.564967,1.590240,6.252785,0.528775
1.676000,-2.692138,-7.610953,-1.049471,5.473756,0.682533
1.680000,-0.452722,-7.758153,-3.412182,4.081590,0.846190
1.684000,1.995961,-7.046780,-5.194114,2.460572,1.014498
1.688000,4.316175,-5.682701,-6.273788,0.937768,1.181850
1.692000,6.209674,-3.972709,-6.722107,-0.321318,1.342405
1.696000,7.483366,-2.234172,-6.748052,-1.346957,1.490395
1.700000,8.085833,-0.707489,-6.601282,-2.316653,1.620260
1.704000,8.103630,0.501650,-6.467658,-3.447307,1.726890
1.708000,7.719770,1.431467,-6.395447,-4.870274,1.805848
1.712000,7.148066,2.224347,-6.279072,-6.541494,1.853472
1.716000,6.563452,3.052667,-5.905874,-8.222136,1.867075
1.720000,6.049119,4.035043,-5.048965,-9.541899,1.845008
1.724000,5.576343,5.173610,-3.571840,-10.120982,1.786764
1.728000,5.022855,6.332455,-1.506669,-9.706765,1.692984
1.732000,4.223981,7.266600,0.923879,-8.272433,1.565437
1.736000,3.039688,7.692697,3.350225,-6.041267,1.406992
1.740000,1.417263,7.379226,5.353777,-3.424491,1.221499
1.744000,-0.570451,6.226345,6.584286,-0.895979,1.013644
1.748000,-2.723682,4.310349,6.859073,1.150113,0.788846
1.752000,-4.754122,1.875972,6.210065,2.509403,0.552969
1.756000,-6.350690,-0.720047,4.863273,3.203115,0.312279
1.760000,-7.256633,-3.099510,3.158491,3.431698,0.073018
1.764000,-7.333784,-4.957554,1.437784,3.463968,-0.158627
1.768000,-6.597068,-6.133579,-0.058588,3.509399,-0.376866
1.772000,-5.208237,-6.637085,-1.253209,3.621718,-0.576425
1.776000,-3.431907,-6.621023,-2.229160,3.673366,-0.752747
1.780000,-1.565194,-6.313777,-3.168049,3.410419,-0.902178
1.784000,0.136451,-5.931585,-4.251182,2.566438,-1.022050
1.788000,1.518330,-5.602110,-5.562068,0.990223,-1.110771
1.792000,2.551323,-5.323502,-7.026452,-1.261530,-1.167863
1.796000,3.318984,-4.972441,-8.413173,-3.907398,-1.193971
1.800000,3.969062,-4.357979,-9.397238,-6.506293,-1.190829
1.804000,4.648148,-3.303691,-9.664218,-8.585690,-1.161153
1.808000,5.437730,-1.728091,-9.019210,-9.783822,-1.108555
1.812000,6.313083,0.301151,-7.463195,-9.956813,-1.037375
1.816000,7.138291,2.561725,-5.207962,-9.211182,-0.952483
1.820000,7.698970,4.720980,-2.624443,-7.850094,-0.859147
1.824000,7.763622,6.418598,-0.140507,-6.256431,-0.762746
1.828000,7.155652,7.361836,1.877480,-4.755602,-0.668626
1.832000,5.814330,7.403983,3.219059,-3.512047,-0.581843
1.836000,3.826093,6.581704,3.871110,-2.494600,-0.506996
1.840000,1.415556,5.099038,3.990471,-1.525292,-0.448004
1.844000,-1.101098,3.264237,3.822940,-0.387225,-0.408012
1.848000,-3.387784,1.400156,3.596935,1.050446,-0.389222
1.852000,-5.166315,-0.245310,3.431256,2.742765,-0.392819
1.856000,-6.277119,-1.557884,3.290271,4.449656,-0.418931
1.860000,-6.706123,-2.569038,3.002494,5.799325,-0.466620
1.864000,-6.571790,-3.418006,2.335536,6.410477,-0.533910
1.868000,-6.076561,-4.278539,1.100316,6.028560,-0.617867
1.872000,-5.437888,-5.275539,-0.754360,4.625307,-0.714698
1.876000,-4.820239,-6.419878,-3.091239,2.422468,-0.819939
1.880000,-4.288114,-7.585176,-5.599316,-0.169982,-0.928565
1.884000,-3.794312,-8.533929,-7.868456,-2.678448,-1.035219
1.888000,-3.206601,-8.987182,-9.503774,-4.709416,-1.134449
1.892000,-2.363173,-8.713449,-10.237455,-6.058230,-1.220833
1.896000,-1.141003,-7.610019,-10.002905,-6.745532,-1.289299
1.900000,0.485783,-5.748374,-8.945450,-6.970827,-1.335233
1.904000,2.415086,-3.369804,-7.367197,-7.001661,-1.354724
1.908000,4.425095,-0.829160,-5.624888,-7.045781,-1.344691
1.912000,6.219828,1.493539,-4.017551,-7.155297,-1.303031
1.916000,7.499194,3.288987,-2.701994,-7.201040,-1.228698
1.920000,8.034681,4.391089,-1.664854,-6.927548,-1.121763
1.924000,7.727784,4.804312,-0.758959,-6.066959,-0.983439
1.928000,6.635678,4.680135,0.210352,-4.467376,-0.816042
1.932000,4.955169,4.249338,1.382451,-2.184568,-0.622891
1.936000,2.970571,3.734718,2.760273,0.500139,-0.408260
1.940000,0.981356,3.273481,4.181326,3.145204,-0.177211
1.944000,-0.772223,2.873796,5.353999,5.277184,0.064583
1.948000,-2.160713,2.420524,5.946347,6.533408,0.311059
1.952000,-3.182455,1.727416,5.698019,6.768599,0.555895
1.956000,-3.941557,0.617633,4.515635,6.087460,0.792852
1.960000,-4.593762,-0.994226,2.518392,4.791741,1.015810
1.964000,-5.279764,-3.047482,0.015384,3.262372,1.219181
1.968000,-6.064343,-5.326745,-2.576199,1.823425,1.397950
1.972000,-6.902557,-7.504575,-4.847474,0.637880,1.547936
1.976000,-7.642987,-9.222610,-6.507965,-0.326101,1.665888
1.980000,-8.067831,-10.186752,-7.453682,-1.246950,1.749594
1.984000,-7.958528,-10.246991,-7.771745,-2.341736,1.797979
1.988000,-7.166230,-9.436256,-7.681005,-3.740905,1.811114
1.992000,-5.667405,-7.956513,-7.432450,-5.398483,1.790190
1.996000,-3.586133,-6.117751,-7.205723,-7.073252,1.737507
2.000000,-1.175703,-4.247274,-7.039174,-8.392049,1.656323
2.004000,1.235219,-2.600750,-6.818809,-8.971696,1.550783
2.008000,3.318061,-1.300750,-6.329398,-8.556262,1.425693
2.012000,4.819319,-0.322621,-5.349767,-7.115674,1.286403
2.016000,5.614962,0.469779,-3.756722,-4.870428,1.138574
2.020000,5.728617,1.251826,-1.599045,-2.229434,0.987932
2.024000,5.309009,2.154357,0.885782,0.334574,0.840130
2.028000,4.574737,3.197257,3.321137,2.428440,0.700441
2.032000,3.743638,4.263457,5.290850,3.847040,0.573688
2.036000,2.967091,5.123581,6.457795,4.610773,0.463928
2.040000,2.290056,5.502945,6.659040,4.917746,0.374417
2.044000,1.647624,5.170483,5.947452,5.034389,0.307428
2.048000,0.899467,4.020418,4.565302,5.166824,0.264210
2.052000,-0.110467,2.120002,2.860110,5.365444,0.244941
2.056000,-1.486216,-0.293860,1.171692,5.499536,0.248728
2.060000,-3.226272,-2.867781,-0.269543,5.311772,0.273647
2.064000,-5.200966,-5.220422,-1.398965,4.533041,0.316847
2.068000,-7.170101,-7.038280,-2.310371,3.010305,0.374645
2.072000,-8.834367,-8.149366,-3.189201,0.799069,0.442706
2.076000,-9.909366,-8.553853,-4.212937,-1.819785,0.516183
2.080000,-10.198291,-8.401323,-5.455071,-4.404569,0.589983
2.084000,-9.643981,-7.924652,-6.829649,-6.481240,0.658880
2.088000,-8.344851,-7.353287,-8.097109,-7.685527,0.717805
2.092000,-6.529495,-6.833582,-8.932205,-7.871221,0.762045
2.096000,-4.497891,-6.383789,-9.029605,-7.141435,0.787390
2.100000,-2.546301,-5.896971,-8.211700,-5.795984,0.790383
2.104000,-0.896287,-5.191587,-6.499991,-4.214372,0.768390
2.108000,0.349969,-4.090735,-4.124915,-2.719215,0.719799
2.112000,1.218367,-2.504711,-1.468119,-1.472211,0.644051
2.116000,1.831711,-0.487377,1.042270,-0.440799,0.541702
2.120000,2.351813,1.753073,3.049652,0.554190,0.414432
2.124000,2.911139,3.894729,4.360415,1.729579,0.264978
2.128000,3.556759,5.581163,4.978503,3.215391,0.097106
2.132000,4.224173,6.517571,5.074139,4.964727,-0.084551
2.136000,4.748920,6.550577,4.898591,6.735295,-0.274635
2.140000,4.913526,5.709269,4.676992,8.152335,-0.467203
2.144000,4.515518,4.193885,4.519364,8.830941,-0.655949
2.148000,3.436382,2.315204,4.380202,8.513500,-0.834397
2.152000,1.690260,0.405322,4.082255,7.168423,-0.996167
2.156000,-0.563237,-1.272783,3.395019,5.014436,-1.135089
2.160000,-3.046163,-2.588134,2.139234,2.459330,-1.245502
2.164000,-5.422353,-3.558593,0.279464,-0.024575,-1.322359
2.168000,-7.375713,-4.317233,-2.031015,-2.044710,-1.361422
2.172000,-8.681376,-5.040843,-4.469640,-3.396060,-1.359396
2.176000,-9.253175,-5.866249,-6.624758,-4.098280,-1.313982
2.180000,-9.151723,-6.822091,-8.109929,-4.348541,-1.223964
2.184000,-8.553627,-7.801142,-8.674695,-4.411982,-1.089200
2.188000,-7.690360,-8.582010,-8.273662,-4.493345,-0.910584
2.192000,-6.776415,-8.894483,-7.071378,-4.641277,-0.689998
2.196000,-5.947689,-8.508054,-5.381717,-4.723368,-0.430150
2.200000,-5.228854,-7.314122,-3.563875,-4.480836,-0.134513
2.204000,-4.538606,-5.375223,-1.909981,-3.643218,0.192912
2.208000,-3.730366,-2.924094,-0.564666,-2.056583,0.547806
2.212000,-2.656287,-0.312168,0.497716,0.224354,0.925654
2.216000,-1.232871,2.078181,1.431715,2.918892,1.322102
2.220000,0.510876,3.929057,2.431563,5.584829,1.732945
2.224000,2.419958,5.063326,3.629316,7.747378,2.154598
2.228000,4.239190,5.476427,5.016142,9.041475,2.584082
2.232000,5.671345,5.316002,6.419281,9.319249,3.019315
2.236000,6.451784,4.817110,7.542485,8.682095,3.459090
2.240000,6.418700,4.215439,8.058664,7.428391,3.903340
2.244000,5.557216,3.666592,7.721356,5.935848,4.353082
2.248000,4.005380,3.198770,6.456997,4.525408,4.810458
2.252000,2.019887,2.713458,4.404545,3.357497,5.278714
2.256000,-0.088202,2.033707,1.888279,2.398669,5.762039
2.260000,-2.030340,0.982573,-0.669665,1.469557,6.265578
2.264000,-3.607049,-0.533835,-2.865810,0.352811,6.795200
2.268000,-4.745402,-2.468567,-4.424028,-1.081079,7.357284
2.272000,-5.498248,-4.620981,-5.258285,-2.784509,7.958617
2.276000,-6.005270,-6.674386,-5.471423,-4.513666,8.605942
2.280000,-6.431471,-8.275256,-5.291635,-5.892536,9.305963
2.284000,-6.899054,-9.127883,-4.970578,-6.534832,10.064981
2.288000,-7.436819,-9.075689,-4.681184,-6.180882,10.888664
2.292000,-7.961541,-8.144153,-4.451797,-4.797740,11.781725
2.296000,-8.298383,-6.531286,-4.160121,-2.602720,12.747904
2.300000,-8.233490,-4.548775,-3.589056,-0.002535,13.789686
2.304000,-7.583789,-2.533326,-2.524037,2.531689,14.908160
2.308000,-6.262928,-0.755046,-0.854860,4.607305,16.103011
2.312000,-4.322338,0.646784,1.352777,6.019162,17.372169
2.316000,-1.954855,1.683457,3.847404,6.786499,18.712219
2.320000,0.541089,2.484629,6.245748,7.105563,20.118174
2.324000,2.827855,3.228561,8.135806,7.240018,21.583592
2.328000,4.606334,4.057775,9.194178,7.393096,23.100823
2.332000,5.683956,5.009864,9.277940,7.611788,24.660783
2.336000,6.013640,5.987311,8.460861,7.761967,26.253660
2.340000,5.692259,6.776791,7.001003,7.583321,27.868839
2.344000,4.921319,7.112836,5.252464,6.803838,29.495235
2.348000,3.941603,6.765557,3.552359,5.268616,31.121230
2.352000,2.960922,5.623455,2.120450,3.031652,32.735425
2.356000,2.097625,3.744371,1.008465,0.373897,34.326571
2.360000,1.355554,1.356629,0.112439,-2.263035,35.883813
2.364000,0.638071,-1.190735,-0.756747,-4.403274,37.397056
2.368000,-0.204934,-3.514023,-1.772025,-5.680661,38.856736
2.372000,-1.310935,-5.291940,-2.996706,-5.945910,40.254534
2.376000,-2.741478,-6.342160,-4.333152,-5.299127,41.583121
2.380000,-4.440714,-6.655472,-5.534342,-4.036617,42.836404
2.384000,-6.230684,-6.377426,-6.275197,-2.534682,44.009244
2.388000,-7.845359,-5.745316,-6.260404,-1.112857,45.097946
2.392000,-8.993907,-5.000860,-5.330063,0.069806,46.099844
2.396000,-9.436104,-4.308815,-3.526339,1.047758,47.013400
2.400000,-9.047497,-3.707444,-1.097172,2.001013,47.838059
2.404000,-7.855705,-3.106780,1.565591,3.146441,48.573970
2.408000,-6.036307,-2.334416,4.034759,4.613574,49.222175
2.412000,-3.870233,-1.213720,5.964509,6.353821,49.784148
2.416000,-1.674518,0.353390,7.178083,8.122336,50.261815
2.420000,0.274711,2.327017,7.697152,9.541648,50.657305
2.424000,1.802934,4.513623,7.704605,10.223524,50.972806
2.428000,2.867658,6.602671,7.456309,9.906931,51.210502
2.432000,3.547463,8.243430,7.173917,8.557170,51.372409
2.436000,3.997313,9.139383,6.958287,6.389874,51.460304
2.440000,4.382457,9.130841,6.754187,3.810919,51.475659
2.444000,4.812968,8.239569,6.379078,1.290450,51.419642
2.448000,5.298730,6.661219,5.604905,-0.779021,51.293112
2.452000,5.739316,4.708142,4.263021,-2.192684,51.096638
2.456000,5.952113,2.721031,2.333436,-2.968999,50.830586
2.460000,5.730224,0.977526,-0.014423,-3.303278,50.495222
2.464000,4.912902,-0.375534,-2.447641,-3.457902,50.090809
2.468000,3.447304,-1.342627,-4.553514,-3.634703,49.617705
2.472000,1.421180,-2.050123,-5.955388,-3.878910,49.076577
2.476000,-0.942576,-2.677652,-6.420601,-4.054667,48.468404
2.480000,-3.329632,-3.373412,-5.925033,-3.900144,47.794847
2.484000,-5.405958,-4.184094,-4.651954,-3.141983,47.058129
2.488000,-6.894452,-5.021999,-2.926503,-1.624182,46.261243
2.492000,-7.638106,-5.682065,-1.108876,0.600101,45.408018
2.496000,-7.629389,-5.903758,0.516063,3.249981,44.503316
2.500000,-7.000072,-5.458030,1.816319,5.883455,43.552804
2.504000,-5.973532,-4.230579,2.829733,8.024193,42.563109
2.508000,-4.795885,-2.274506,3.717794,9.305082,41.541735
2.512000,-3.665037,0.186442,4.674272,9.575372,40.496922
2.516000,-2.679967,2.805468,5.822933,8.933550,39.437767
2.520000,-1.823972,5.198282,7.143497,7.674309,38.373698
2.524000,-0.986432,7.040096,8.453205,6.172256,37.314579
2.528000,-0.015965,8.143450,9.452311,4.745320,36.270322
2.532000,1.212198,8.494348,9.819150,3.551428,35.251015
2.536000,2.736583,8.236395,9.321866,2.555137,34.266212
2.540000,4.475277,7.608694,7.906858,1.575930,33.325061
2.544000,6.230327,6.858939,5.733032,0.396896,32.435943
2.548000,7.728994,6.160890,3.138240,-1.111367,31.606284
2.552000,8.691266,5.562784,0.549158,-2.899148,30.842514
2.556000,8.904978,4.982959,-1.637544,-4.720604,30.149630
2.560000,8.285173,4.253856,-3.160293,-6.196563,29.531299
2.564000,6.901354,3.199056,-3.951092,-6.937586,28.989698
2.568000,4.963705,1.716120,-4.128633,-6.680559,28.525450
2.572000,2.773108,-0.161725,-3.929574,-5.389131,28.137742
2.576000,0.647416,-2.248974,-3.605603,-3.277923,27.824187
2.580000,-1.153706,-4.240993,-3.322518,-0.751065,27.581056
2.584000,-2.484157,-5.790226,-3.098485,1.722043,27.403341
2.588000,-3.332051,-6.599533,-2.803340,3.749196,27.284980
2.592000,-3.800930,-6.506468,-2.218609,5.125324,27.218993
2.596000,-4.058308,-5.529053,-1.136419,5.868639,27.197709
2.600000,-4.267285,-3.860472,0.539291,6.173630,27.213064
2.604000,-4.524107,-1.813480,2.726866,6.301402,27.256782
2.608000,-4.819614,0.266757,5.160925,6.452093,27.320672
2.612000,-5.037791,2.096289,7.452948,6.669445,27.396823
2.616000,-4.991214,3.520153,9.195764,6.815862,27.477902
2.620000,-4.483297,4.536067,10.080601,6.628060,27.557274
2.624000,-3.378084,5.267203,9.985154,5.831237,27.629252
2.628000,-1.657158,5.894070,9.003765,4.268252,27.689179
2.632000,0.556610,6.570893,7.409700,1.991828,27.733567
2.636000,3.013496,7.352994,5.562963,-0.717642,27.760130
2.640000,5.389004,8.162670,3.796473,-3.417889,27.767810
2.644000,7.357071,8.803144,2.319573,-5.631750,27.756733
2.648000,8.667433,9.019086,1.170743,-6.991136,27.728163
2.652000,9.200695,8.582187,0.236227,-7.343947,27.684343
2.656000,8.989316,7.375503,-0.676235,-6.787038,27.628410
2.660000,8.197477,5.447155,-1.734783,-5.613405,27.564138
2.664000,7.067048,3.016558,-2.992101,-4.195953,27.495854
2.668000,5.845546,0.427482,-4.339210,-2.851044,27.428096
2.672000,4.717903,-1.935512,-5.521941,-1.735397,27.365512
2.676000,3.761844,-3.744326,-6.216568,-0.812366,27.312555
2.680000,2.940368,-4.806262,-6.138296,0.099042,27.273337
2.684000,2.130671,-5.103030,-5.145230,1.216045,27.251431
2.688000,1.182559,-4.776015,-3.300195,2.667172,27.249675
2.692000,-0.014404,-4.066055,-0.868537,4.402514,27.270083
2.696000,-1.474985,-3.226630,1.749678,6.175096,27.313725
2.700000,-3.092713,-2.440620,4.128620,7.604159,27.380672
2.704000,-4.652596,-1.766036,5.934233,8.298485,27.469994
2.708000,-5.879484,-1.129634,7.007132,7.993643,27.579759
2.712000,-6.509015,-0.368892,7.386441,6.651575,27.707142
2.716000,-6.360287,0.692431,7.267430,4.485103,27.848473
2.720000,-5.389159,2.160641,6.909961,1.897790,27.999400
2.724000,-3.706054,4.009810,6.531509,-0.642043,28.155092
2.728000,-1.552668,6.062077,6.223550,-2.742708,28.310341
2.732000,0.755216,8.019439,5.921315,-4.199111,28.459874
2.736000,2.903665,9.537048,5.437605,-5.028618,28.598412
2.740000,4.653671,10.317975,4.547242,-5.425015,28.721036
2.744000,5.889510,10.196759,3.092633,-5.648094,28.823269
2.748000,6.630235,9.187656,1.069721,-5.896417,28.901331
2.752000,7.002819,7.481061,-1.336979,-6.212100,28.952237
2.756000,7.184339,5.390590,-3.784526,-6.455866,28.973960
2.760000,7.333333,3.264628,-5.860411,-6.362549,28.965511
2.764000,7.530503,1.393975,-7.198403,-5.656230,28.926999
2.768000,7.747900,-0.058686,-7.584381,-4.178531,28.859635
2.772000,7.855610,-1.084452,-7.015498,-1.981245,28.765714
2.776000,7.664301,-1.802899,-5.693314,0.655346,28.648541
2.780000,6.990659,-2.395822,-3.953378,3.288568,28.512329
2.784000,5.726080,-3.022979,-2.156273,5.441144,28.362031
2.788000,3.886132,-3.748771,-0.578327,6.743845,28.203219
2.792000,1.627306,-4.505162,0.661033,7.043139,28.041868
2.796000,-0.778144,-5.104107,1.611815,6.434409,27.884108
2.800000,-3.000017,-5.295417,2.442140,5.209033,27.736092
2.804000,-4.726441,-4.851818,3.344350,3.738240,27.603678
2.808000,-5.737413,-3.653571,4.434208,2.336795,27.492314
2.812000,-5.953072,-1.744150,5.679743,1.160254,27.406788
2.816000,-5.445356,0.662087,6.888562,0.171010,27.351080
2.820000,-4.408575,3.224192,7.758056,-0.812500,27.328193
2.824000,-3.099042,5.557660,7.973157,-2.007527,27.340086
2.828000,-1.761812,7.331277,7.316949,-3.542488,27.387578
2.832000,-0.565989,8.347542,5.756026,-5.366474,27.470326
2.836000,0.432706,8.583583,3.468723,-7.231222,27.586837
2.840000,1.291546,8.178712,0.806174,-8.754729,27.734540
2.844000,2.143385,7.375171,-1.802307,-9.544249,27.909860
2.848000,3.134773,6.432448,-3.967138,-9.333362,28.108346
2.852000,4.359874,5.541961,-5.442307,-8.082371,28.324841
2.856000,5.809600,4.771672,-6.178070,-6.002864,28.553702
2.860000,7.354643,4.056841,-6.308213,-3.496820,28.788923
2.864000,8.766338,3.239936,-6.077525,-1.031692,29.024459
2.868000,9.771331,2.145168,-5.737103,1.001080,29.254326
2.872000,10.124947,0.662011,-5.445138,2.396478,29.472889
2.876000,9.680567,-1.190461,-5.209656,3.171461,29.675069
2.880000,8.435383,-3.242548,-4.892863,3.519091,29.856466
2.884000,6.539062,-5.202389,-4.275517,3.697708,30.013534
2.888000,4.261006,-6.728966,-3.157191,3.904619,30.143714
2.892000,1.927045,-7.525194,-1.455863,4.180170,30.245516
2.896000,-0.158177,-7.422792,0.730449,4.383393,30.318529
2.900000,-1.779992,-6.432159,3.124026,4.247707,30.363445
2.904000,-2.854659,-4.741376,5.331139,3.495580,30.381999
2.908000,-3.432132,-2.663629,6.950730,1.967853,30.376920
2.912000,-3.660585,-0.550961,7.689558,-0.284519,30.351773
2.916000,-3.724135,1.299431,7.446075,-2.981593,30.310851
2.920000,-3.774097,2.717296,6.334931,-5.680848,30.258931
2.924000,-3.874470,3.686962,4.643871,-7.903631,30.201189
2.928000,-3.978926,4.324736,2.737967,-9.280123,30.142856
2.932000,-3.945725,4.813474,0.945502,-9.655444,30.089138
2.936000,-3.586611,5.318399,-0.535909,-9.123266,30.044896
2.940000,-2.734559,5.912774,-1.680638,-7.973488,30.014521
2.944000,-1.309680,6.538709,-2.612256,-6.575398,30.001742
2.948000,0.638034,7.016847,-3.525290,-5.242346,30.009440
2.952000,2.921602,7.102266,-4.582532,-4.128339,30.039583
2.956000,5.250504,6.568964,-5.826459,-3.194957,30.093095
2.960000,7.293612,5.294726,-7.136651,-2.260038,30.169826
2.964000,8.758283,3.318095,-8.252556,-1.105914,30.268563
2.968000,9.458228,0.848268,-8.852422,0.395295,30.387039
2.972000,9.354640,-1.776911,-8.663048,2.191913,30.522049
2.976000,8.557537,-4.173238,-7.560723,4.034981,30.669528
2.980000,7.288320,-6.006169,-5.628881,5.540702,30.824698
2.984000,5.813894,-7.073969,-3.149249,6.314861,30.982297
2.988000,4.372996,-7.349101,-0.530139,6.089401,31.136691
2.992000,3.115935,-6.968437,1.806046,4.822881,31.282184
2.996000,2.075587,-6.175798,3.537151,2.725518,31.413094
3.000000,1.175602,-5.236069,4.521852,0.197942,31.524131
3.004000,0.275152,-4.349340,4.816503,-2.292812,31.610462
3.008000,-0.766689,-3.593326,4.628175,-4.356384,31.667988
3.012000,-2.025996,-2.911736,4.220059,-5.787455,31.693440
3.016000,-3.470171,-2.152243,3.804871,-6.602630,31.684550
3.020000,-4.948897,-1.139316,3.464483,-6.993709,31.640120
3.024000,-6.223362,0.241477,3.124756,-7.218305,31.560096
3.028000,-7.026678,1.978572,2.593985,-7.471936,31.445563
3.032000,-7.137461,3.909961,1.650879,-7.793350,31.298744
3.036000,-6.445645,5.750782,0.149225,-8.040015,31.122888
3.040000,-4.990024,7.163761,-1.899424,-7.943476,30.922204
3.044000,-2.956777,7.851976,-4.295304,-7.224936,30.701679
3.048000,-0.638809,7.644467,-6.687108,-5.723957,30.466950
3.052000,1.633026,6.548012,-8.662987,-3.490940,30.224093
3.056000,3.568119,4.747805,-9.868303,-0.805421,29.979407
3.060000,4.979574,2.556942,-10.107956,1.889855,29.739173
3.064000,5.817095,0.330761,-9.400499,4.115860,29.509493
3.068000,6.160856,-1.627414,-7.965077,5.501739,29.296014
3.072000,6.177785,-3.139462,-6.146885,5.891190,29.103813
3.076000,6.056147,-4.183419,-4.306087,5.376471,28.937161
3.080000,5.937690,-4.871902,-2.710231,4.245660,28.799393
3.084000,5.868785,-5.388781,-1.465195,2.866308,28.692814
3.088000,5.785430,-5.904645,-0.509428,1.550448,28.618642
3.092000,5.536339,-6.501652,0.331326,0.450608,28.576944
3.096000,4.937308,-7.131853,1.247712,-0.472509,28.566683
3.100000,3.840437,-7.624658,2.346776,-1.401974,28.585743
3.104000,2.195493,-7.740616,3.585267,-2.555390,28.631053
3.108000,0.086306,-7.254992,4.761387,-4.060388,28.698696
3.112000,-2.272465,-6.043003,5.570449,-5.864667,28.784055
3.116000,-4.576170,-4.138234,5.704547,-7.717937,28.882056
3.120000,-6.498974,-1.744631,4.962560,-9.235307,28.987279
3.124000,-7.771447,0.803587,3.331131,-10.020823,29.094274
3.128000,-8.243894,3.122265,1.007639,-9.804726,29.197647
3.132000,-7.919092,4.874730,-1.644494,-8.544072,29.292412
3.136000,-6.943646,5.854587,-4.193910,-6.447284,29.374062
3.140000,-5.562196,6.029866,-6.259919,-3.913887,29.438824
3.144000,-4.048098,5.535111,-7.612135,-1.410106,29.483752
3.148000,-2.629913,4.615569,-8.219264,0.674112,29.506860
3.152000,-1.437226,3.541376,-8.230020,2.133567,29.507204
3.156000,-0.478859,2.521211,-7.896662,2.984505,29.484904
3.160000,0.339268,1.642503,-7.468916,3.417742,29.441130
3.164000,1.163719,0.857722,-7.097146,3.689683,29.378094
3.168000,2.127454,0.019307,-6.779271,3.994479,29.298900
3.172000,3.287503,-1.047307,-6.370239,4.369137,29.207495
3.176000,4.588446,-2.460760,-5.650528,4.669373,29.108437
3.180000,5.861068,-4.216361,-4.427833,4.625168,29.006779
3.184000,6.860475,-6.160577,-2.634410,3.956256,28.907858
3.188000,7.330226,-8.015354,-0.384314,2.501049,28.817029
3.192000,7.076061,-9.447386,2.032428,0.309279,28.739555
3.196000,6.026042,-10.160008,4.218808,-2.340281,28.680280
3.200000,4.260033,-9.979776,5.780297,-5.004198,28.643555
3.204000,1.998034,-8.909662,6.439777,-7.203349,28.632943
3.208000,-0.448075,-7.131857,6.116796,-8.565556,28.651161
3.212000,-2.748073,-4.959032,4.946187,-8.933576,28.699912
3.216000,-4.629679,-2.749523,3.229101,-8.398017,28.779831
3.220000,-5.936454,-0.812865,1.334910,-7.245149,28.890413
3.224000,-6.652529,0.665805,-0.413699,-5.841265,29.030050
3.228000,-6.886753,1.657971,-1.830952,-4.496421,29.196041
3.232000,-6.822326,2.272556,-2.904664,-3.361890,29.384720
3.236000,-6.648561,2.694279,-3.767471,-2.397407,29.591475
3.240000,-6.495370,3.099271,-4.615956,-1.419612,29.811051
3.244000,-6.390697,3.578474,-5.607269,-0.210274,30.037581
3.248000,-6.253838,4.094065,-6.772952,1.357823,30.264898
3.252000,-5.926242,4.484263,-7.982056,3.231774,30.486673
3.256000,-5.230709,4.515386,-8.968123,5.159798,30.696644
3.260000,-4.040534,3.964229,-9.412315,6.755903,30.888908
3.264000,-2.336344,2.703356,-9.053463,7.622452,31.058005
3.268000,-0.233917,0.761413,-7.786776,7.487941,31.199213
3.272000,2.027854,-1.663073,-5.715637,6.307710,31.308636
3.276000,4.134753,-4.239236,-3.138011,4.288821,31.383367
3.280000,5.771404,-6.583919,-0.469008,1.829424,31.421591
3.284000,6.695899,-8.358137,1.872783,-0.605364,31.422623
3.288000,6.797862,-9.350942,3.578840,-2.625971,31.386926
3.292000,6.121439,-9.525877,4.525311,-4.027234,31.316095
3.296000,4.847534,-9.015176,4.785884,-4.824973,31.212760
3.300000,3.240517,-8.065178,4.579036,-5.209472,31.080534
3.304000,1.575571,-6.951200,4.170447,-5.435716,30.923795
3.308000,0.067604,-5.890235,3.767493,-5.696485,30.747590
3.312000,-1.176558,-4.979551,3.442259,-6.027188,30.557410
3.316000,-2.171963,-4.179962,3.111386,-6.281781,30.358990
3.320000,-3.028923,-3.349277,2.579374,-6.188973,30.158058
3.324000,-3.897696,-2.313364,1.629048,-5.466713,29.960195
3.328000,-4.900800,-0.949637,0.125763,-3.952304,29.770537
3.332000,-6.075505,0.744373,-1.902725,-1.694816,29.593682
3.336000,-7.343993,2.623438,-4.242313,1.026881,29.433450
3.340000,-8.521276,4.416707,-6.533594,3.770036,29.292764
3.344000,-9.359951,5.795091,-8.367360,6.054552,29.173554
3.348000,-9.618017,6.462314,-9.400870,7.507166,29.076705
3.352000,-9.131273,6.242669,-9.458655,7.969451,29.001996
3.356000,-7.867243,5.135336,-8.580575,7.530420,28.948152
3.360000,-5.945181,3.319401,-7.003090,6.474759,28.912875
3.364000,-3.615612,1.106827,-5.079794,5.166721,28.892965
3.368000,-1.204285,-1.140872,-3.169791,3.915075,28.884413
3.372000,0.964198,-3.108792,-1.530864,2.869687,28.882624
3.376000,2.640274,-4.604438,-0.255820,1.989040,28.882521
3.380000,3.700728,-5.592718,0.728871,1.089061,28.878825
3.384000,4.164288,-6.179139,1.602772,-0.048515,28.866225
3.388000,4.166822,-6.549106,2.554491,-1.550788,28.839555
3.392000,3.904923,-6.884044,3.682077,-3.364072,28.794092
3.396000,3.566041,-7.283661,4.930783,-5.235914,28.725648
3.400000,3.266235,-7.720258,6.090348,-6.778794,28.630814
3.404000,3.014682,-8.040951,6.854478,-7.593255,28.507049
3.408000,2.715166,-8.018036,6.923313,-7.406437,28.352824
3.412000,2.204517,-7.429707,6.111904,-6.172073,28.167654
3.416000,1.315514,-6.146216,4.427142,-4.095463,27.952159
3.420000,-0.055660,-4.191005,2.084716,-1.573631,27.708030
3.424000,-1.897020,-1.757491,-0.540259,0.929128,27.438022
3.428000,-4.062471,0.827785,-3.015713,3.023570,27.145776
3.432000,-6.292336,3.182520,-4.970264,4.504917,26.835773
3.436000,-8.268756,4.965621,-6.190426,5.388521,26.513091
3.440000,-9.690822,5.961818,-6.662983,5.863634,26.183374
3.444000,-10.348321,6.130432,-6.551292,6.184131,25.852419
3.448000,-10.171717,5.601098,-6.114396,6.541304,25.526137
3.452000,-9.245941,4.621141,-5.600149,6.968937,25.210217
3.456000,-7.783127,3.470790,-5.150517,7.319280,24.909999
3.460000,-6.063264,2.375522,-4.753288,7.319160,24.630267
3.464000,-4.359090,1.441870,-4.256684,6.685295,24.374992
3.468000,-2.868551,0.639331,-3.441615,5.253822,24.147279
3.472000,-1.673565,-0.169007,-2.124122,3.072737,23.949183
3.476000,-0.735607,-1.156688,-0.250911,0.420438,23.781658
3.480000,0.070101,-2.449990,2.047963,-2.259802,23.644536
3.484000,0.895039,-4.058866,4.471099,-4.487686,23.536464
3.488000,1.849593,-5.846487,6.618686,-5.889218,23.455015
3.492000,2.950746,-7.549469,8.104379,-6.304445,23.396716
3.496000,4.099464,-8.842743,8.667540,-5.820994,23.357214
3.500000,5.097856,-9.431229,8.249045,-4.721826,23.331419
3.504000,5.699829,-9.136804,7.003434,-3.369770,23.313633
3.508000,5.682003,-7.954855,5.244933,-2.071869,23.297843
3.512000,4.912605,-6.061114,3.345840,-0.976496,23.277832
3.516000,3.399160,-3.767265,1.622687,-0.041320,23.247493
3.520000,1.298667,-1.436836,0.248852,0.918540,23.200969
3.524000,-1.111767,0.609573,-0.776618,2.121194,23.132919
3.528000,-3.498112,2.172318,-1.595457,3.694068,23.038639
3.532000,-5.546015,3.209676,-2.405517,5.582460,22.914301
3.536000,-7.032662,3.823746,-3.357856,7.532806,22.757018
3.540000,-7.869974,4.200467,-4.473213,9.156133,22.564972
3.544000,-8.111073,4.526553,-5.610088,10.051738,22.337455
3.548000,-7.916591,4.910332,-6.497001,9.944809,22.074877
3.552000,-7.493412,5.334141,-6.818649,8.787249,21.778790
3.556000,-7.024154,5.654319,-6.326761,6.783204,21.451747
3.560000,-6.609246,5.648981,-4.935461,4.328128,21.097227
3.564000,-6.238814,5.098004,-2.768310,1.885328,20.719520
3.568000,-5.802744,3.869127,-0.138024,-0.156771,20.323483
3.572000,-5.135822,1.980994,2.534005,-1.592841,19.914481
3.576000,-4.083234,-0.379013,4.834295,-2.438268,19.498055
3.580000,-2.566130,-2.888319,6.468193,-2.881627,19.079736
3.584000,-0.627084,-5.166253,7.330412,-3.175591,18.664881
3.588000,1.559497,-6.869269,7.511414,-3.509913,18.258474
3.592000,3.717220,-7.778546,7.240260,-3.916835,17.864864
3.596000,5.529337,-7.848909,6.784813,-4.246873,17.487646
3.600000,6.714814,-7.207572,6.346570,-4.225388,17.129546
3.604000,7.098060,-6.102513,5.987557,-3.567500,16.792279
3.608000,6.651441,-4.819177,5.615481,-2.108212,16.476573
3.612000,5.499395,-3.590841,5.031511,0.105249,16.182025
3.616000,3.882139,-2.533768,4.023257,2.794813,15.907218
3.620000,2.090503,-1.625847,2.468330,5.517214,15.649732
3.624000,0.390429,-0.735585,0.409967,7.791915,15.406280
3.628000,-1.039821,0.309694,-1.923376,9.243525,15.172825
3.632000,-2.144711,1.640147,-4.165379,9.711037,14.944747
3.636000,-2.985563,3.272943,-5.909772,9.280506,14.716997
3.640000,-3.699961,5.079894,-6.827251,8.233251,14.484352
3.644000,-4.437982,6.804827,-6.762110,6.930383,14.241639
3.648000,-5.296275,8.127472,-5.775423,5.677338,13.983840
3.652000,-6.271014,8.753656,-4.120243,4.621190,13.706431
3.656000,-7.243866,8.502982,-2.158058,3.718341,13.405465
3.660000,-8.007017,7.366942,-0.245368,2.783264,13.077800
3.664000,-8.319694,5.518259,1.369922,1.597545,12.721247
3.668000,-7.980451,3.267212,2.608680,0.034192,12.334623
3.672000,-6.892311,0.979683,3.555878,-1.851688,11.917834
3.676000,-5.102281,-1.018451,4.396510,-3.805640,11.471904
3.680000,-2.803206,-2.520522,5.316004,-5.437020,10.999030
3.684000,-0.293906,-3.478743,6.403378,-6.343745,10.502401
3.688000,2.087879,-3.991410,7.592750,-6.249215,9.986170
3.692000,4.043703,-4.245071,8.665599,-5.103829,9.455332
3.696000,5.380790,-4.431609,9.315180,-3.109883,8.915485
3.700000,6.047439,-4.667975,9.250248,-0.661866,8.372847
3.704000,6.130228,-4.946729,8.302578,1.777996,7.833756
3.708000,5.812131,-5.133455,6.499309,3.821731,7.304693
3.712000,5.306988,-5.012251,4.074275,5.264337,6.791913
3.716000,4.789668,-4.364902,1.412513,6.120842,6.301326
3.720000,4.343367,-3.056996,-1.053362,6.578859,5.838311
3.724000,3.939308,-1.101913,-2.962543,6.890017,5.407437
3.728000,3.455143,1.318685,-4.118497,7.242615,5.012370
3.732000,2.726278,3.886745,-4.526682,7.667330,4.655759
3.736000,1.612598,6.222609,-4.364286,8.013025,4.339182
3.740000,0.061371,7.981602,-3.896499,8.003161,4.063029
3.744000,-1.854505,8.940839,-3.368608,7.351747,3.826555
3.748000,-3.935575,9.050778,-2.913914,5.892351,3.627923
3.752000,-5.893309,8.435910,-2.509993,3.671291,3.464251
3.756000,-7.416659,7.345028,-1.998722,0.966468,3.331801
3.760000,-8.248926,6.067993,-1.161818,-1.779006,3.226020
3.764000,-8.252058,4.846122,0.175592,-4.083774,3.141839
3.768000,-7.440939,3.805019,2.051963,-5.571989,3.073762
3.772000,-5.977354,2.931030,4.322369,-6.081216,3.016165
3.776000,-4.125956,2.098202,6.674214,-5.695920,2.963471
3.780000,-2.183987,1.134508,8.706135,-4.695912,2.910326
3.784000,-0.406654,-0.093958,10.040573,-3.440334,2.851881
3.788000,1.051022,-1.611804,10.434538,-2.233122,2.783891
3.792000,2.160002,-3.299251,9.850151,-1.220155,2.702942
3.796000,3.003763,-4.908005,8.461382,-0.356505,2.606517
3.800000,3.730216,-6.122782,6.594686,0.544000,2.493124
3.804000,4.485670,-6.650492,4.624528,1.700134,2.362327
3.808000,5.351692,-6.308625,2.860274,3.238648,2.214750
3.812000,6.303518,-5.085040,1.462901,5.103921,2.052074
3.816000,7.205243,-3.148909,0.418021,7.040259,1.876932
3.820000,7.842372,-0.809240,-0.424460,8.656035,1.692798
3.824000,7.983412,1.565857,-1.263386,9.547350,1.503882
3.828000,7.451724,3.645500,-2.243239,9.436121,1.314881
3.832000,6.186691,5.216229,-3.373743,8.270956,1.130927
3.836000,4.274409,6.223912,-4.503246,6.252665,0.957200
3.840000,1.939729,6.763076,-5.355771,3.774536,0.798865
3.844000,-0.501274,7.020882,-5.620519,1.297499,0.660768
3.848000,-2.712457,7.193995,-5.062467,-0.790609,0.547300
3.852000,-4.415962,7.408085,-3.615087,-2.285238,0.462176
3.856000,-5.451920,7.665809,-1.421686,-3.200726,0.408266
3.860000,-5.806452,7.841990,1.190683,-3.724145,0.387504
3.864000,-5.597984,7.726879,3.796190,-4.106052,0.400775
3.868000,-5.029004,7.104284,5.986908,-4.533235,0.447851
3.872000,-4.317011,5.837348,7.483032,-5.034626,0.527392
3.876000,-3.626492,3.934398,8.197826,-5.457389,0.636961
3.880000,-3.021973,1.570837,8.238581,-5.523489,0.773119
3.884000,-2.456424,-0.939265,7.844378,-4.945165,0.931488
3.888000,-1.797299,-3.218629,7.284424,-3.555050,1.106932
3.892000,-0.883076,-4.921055,6.753878,-1.398462,1.293726
3.896000,0.409243,-5.819944,6.304699,1.247323,1.485703
3.900000,2.105556,-5.861525,5.835890,3.939285,1.676552
3.904000,4.103731,-5.167603,5.145788,6.195131,1.859893
3.908000,6.181925,-3.987501,4.027413,7.638565,2.029678
3.912000,8.044137,-2.615618,2.370872,8.105804,2.180235
3.916000,9.390278,-1.300960,0.235267,7.679956,2.306578
3.920000,9.991723,-0.178427,-2.137837,6.639008,2.404499
3.924000,9.750023,0.756879,-4.375613,5.340726,2.470749
3.928000,8.722289,1.625775,-6.075882,4.087270,2.503151
3.932000,7.105305,2.599139,-6.923355,3.022979,2.500649
3.936000,5.183449,3.814740,-6.782628,2.102198,2.463336
3.940000,3.255912,5.304297,-5.735771,1.137895,2.392468
3.944000,1.563168,6.956869,-4.051862,-0.089158,2.290366
3.948000,0.234599,8.532040,-2.099157,-1.705288,2.160371
3.952000,-0.728197,9.719604,-0.231128,-3.654187,2.006657
3.956000,-1.429261,10.227700,1.315475,-5.679554,1.834128
3.960000,-2.024667,9.871953,2.474973,-7.387988,1.648213
3.964000,-2.654773,8.636396,3.343771,-8.374182,1.454618
3.968000,-3.384515,6.686616,4.111378,-8.358248,1.259200
3.972000,-4.168960,4.330224,4.960093,-7.287189,1.067649
3.976000,-4.856753,1.936894,5.969625,-5.360094,0.885369
3.980000,-5.230124,-0.157312,7.062731,-2.969041,0.717239
3.984000,-5.070444,-1.732684,8.013459,-0.574025,0.567436
3.988000,-4.229004,-2.728713,8.515245,1.438090,0.439274
3.992000,-2.682093,-3.236222,8.286368,2.862801,0.335127
3.996000,-0.554019,-3.442664,7.175704,3.713926,0.256321
4.000000,1.901985,-3.549720,5.230610,4.178214,0.203103
4.004000,4.357241,-3.691481,2.702365,4.504863,0.174635
4.008000,6.483065,-3.880846,-0.014326,4.879347,0.169066
4.012000,8.026213,-4.001876,-2.488442,5.329101,0.183572
4.016000,8.862332,-3.851261,-4.369944,5.699631,0.214523
4.020000,9.015196,-3.214809,-5.480051,5.711102,0.257570
4.024000,8.633423,-1.953472,-5.842338,5.074453,0.307913
4.028000,7.935670,-0.070246,-5.647699,3.620956,0.360405
4.032000,7.139714,2.265005,-5.166780,1.395280,0.409812
4.036000,6.396933,4.743799,-4.641625,-1.325811,0.451041
4.040000,5.752278,6.990542,-4.196504,-4.099184,0.479266
4.044000,5.140879,8.658026,-3.798960,-6.442285,0.490235
4.048000,4.422302,9.516086,-3.284757,-7.977874,0.480348
4.052000,3.440513,9.506653,-2.437177,-8.540800,0.446877
4.056000,2.091464,8.748814,-1.090764,-8.212704,0.388044
4.060000,0.376787,7.492350,0.778276,-7.270012,0.303117
4.064000,-1.574175,6.035844,3.009551,-6.068507,0.192456
4.068000,-3.520951,4.635865,5.281025,-4.908865,0.057499
4.072000,-5.164339,3.436773,7.190205,-3.934068,-0.099231
4.076000,-6.219948,2.441936,8.369579,-3.097181,-0.274285
4.080000,-6.490966,1.536120,8.594154,-2.210294,-0.463322
4.084000,-5.920233,0.549438,7.847510,-1.054001,-0.661344
4.088000,-4.606231,-0.659434,6.322592,0.497951,-0.862780
4.092000,-2.777486,-2.129559,4.357162,2.388729,-1.061738
4.096000,-0.734096,-3.758940,2.327103,4.361020,-1.252242
4.100000,1.227942,-5.315149,0.533995,6.020275,-1.428368
4.104000,2.886790,-6.493250,-0.874683,6.959599,-1.584564
4.108000,4.140312,-7.002771,-1.925936,6.897408,-1.715713
4.112000,5.014363,-6.657601,-2.778139,5.779089,-1.817480
4.116000,5.632032,-5.437862,-3.630428,3.802273,-1.886346
4.120000,6.154860,-3.505542,-4.620427,1.357485,-1.919813
4.124000,6.715328,-1.166385,-5.747002,-1.096071,-1.916452
4.128000,7.360552,1.208031,-6.848473,-3.172065,-1.875990
4.132000,8.026033,3.277492,-7.645106,-4.666184,-1.799305
4.136000,8.547316,4.815735,-7.831429,-5.592287,-1.688413
4.140000,8.706924,5.756086,-7.186341,-6.135811,-1.546360
4.144000,8.302411,6.185593,-5.662761,-6.545203,-1.377209
4.148000,7.215285,6.292051,-3.423242,-7.004432,-1.185760
4.152000,5.459496,6.281919,-0.808606,-7.539278,-0.977511
4.156000,3.194892,6.297832,1.751384,-7.993505,-0.758361
4.160000,0.699337,6.362820,3.856434,-8.085742,-0.534479
4.164000,-1.690998,6.370369,5.241580,-7.525237,-0.312062
4.168000,-3.660013,6.123687,5.838993,-6.142063,-0.097073
4.172000,-4.982823,5.410640,5.772396,-3.980043,0.104895
4.176000,-5.573253,4.090099,5.290324,-1.315060,0.288886
4.180000,-5.491926,2.160017,4.662640,1.409232,0.450646
4.184000,-4.915483,-0.216017,4.077653,3.710339,0.586895
4.188000,-4.075294,-2.734590,3.577069,5.209801,0.695329
4.192000,-3.185886,-5.022429,3.051395,5.741666,0.774752
4.196000,-2.383149,-6.731492,2.296750,5.385999,0.825063
4.200000,-1.691831,-7.627919,1.112222,4.417431,0.847259
4.204000,-1.030360,-7.649731,-0.599543,3.190410,0.843372
4.208000,-0.252449,-6.913054,-2.763753,2.003780,0.816400
4.212000,0.789947,-5.667916,-5.125811,0.999028,0.770136
4.216000,2.180289,-4.216781,-7.308042,0.128119,0.709054
4.220000,3.889560,-2.823945,-8.912971,-0.797293,0.638083
4.224000,5.762803,-1.642541,-9.640199,-1.997167,0.562453
4.228000,7.544844,-0.684411,-9.375001,-3.597740,0.487412
4.232000,8.938477,0.160161,-8.220149,-5.541713,0.418113
4.236000,9.679070,1.059922,-6.460075,-7.570191,0.359328
4.240000,9.604842,2.159832,-4.469052,-9.287833,0.315271
4.244000,8.700905,3.506331,-2.596601,-10.285993,0.289468
4.248000,7.105394,5.006400,-1.067980,-10.281548,0.284561
4.252000,5.074937,6.435967,0.065169,-9.217977,0.302244
4.256000,2.920651,7.495244,0.909928,-7.291558,0.343154
4.260000,0.931098,7.895869,1.660138,-4.891271,0.406865
4.264000,-0.694225,7.449909,2.494270,-2.475481,0.491887
4.268000,-1.882368,6.133785,3.482334,-0.429519,0.595705
4.272000,-2.686021,4.105417,4.536314,1.042352,0.714903
4.276000,-3.245211,1.669274,5.423024,1.953517,0.845243
4.280000,-3.724635,-0.802352,5.836867,2.489017,0.981844
4.284000,-4.246497,-2.964611,5.506397,2.896134,1.119393
4.288000,-4.839603,-4.585124,4.297951,3.357480,1.252287
4.292000,-5.420732,-5.590788,2.278958,3.897168,1.374884
4.296000,-5.815003,-6.065143,-0.282466,4.357325,1.481697
4.300000,-5.808549,-6.195858,-2.983045,4.454991,1.567646
4.304000,-5.218371,-6.194253,-5.393970,3.897805,1.628183
4.308000,-3.957885,-6.211194,-7.177612,2.514510,1.659543
4.312000,-2.078489,-6.279834,-8.172829,0.348235,1.658845
4.316000,0.226747,-6.303131,-8.421540,-2.325548,1.624224
4.320000,2.659589,-6.090814,-8.127820,-5.063628,1.554917
4.324000,4.882312,-5.432997,-7.566947,-7.382984,1.451301
4.328000,6.596102,-4.186470,-6.977243,-8.904224,1.314878
4.332000,7.608142,-2.344021,-6.473687,-9.460169,1.148284
4.336000,7.871426,-0.062625,-6.013857,-9.129457,0.955123
4.340000,7.482901,2.359529,-5.428003,-8.185225,0.739933
4.344000,6.644127,4.551919,-4.501329,-6.979891,0.507942
4.348000,5.595908,6.165535,-3.078461,-5.810985,0.264995
4.352000,4.546012,6.963671,-1.150432,-4.818510,0.017284
4.356000,3.612853,6.880121,1.107605,-3.953187,-0.228883
4.360000,2.800317,6.028193,3.364301,-3.025875,-0.467217
4.364000,2.011783,4.657811,5.217852,-1.816175,-0.691787
4.368000,1.097222,3.075764,6.310920,-0.198171,-0.897056
4.372000,-0.080917,1.553239,6.437312,1.770267,-1.078251
4.376000,-1.583996,0.252503,5.602187,3.829657,-1.231396
4.380000,-3.356412,-0.806209,4.016699,5.583120,-1.353512
4.384000,-5.219900,-1.726755,2.029288,6.620478,-1.442658
4.388000,-6.908504,-2.676915,0.016135,6.656858,-1.498047
4.392000,-8.131366,-3.805193,-1.729764,5.634293,-1.520010
4.396000,-8.648230,-5.165249,-3.074364,3.747257,-1.510000
4.400000,-8.334612,-6.673158,-4.057892,1.383199,-1.470491
4.404000,-7.218054,-8.112923,-4.846207,-1.000345,-1.404933
4.408000,-5.474171,-9.190659,-5.638457,-3.018415,-1.317533
4.412000,-3.383988,-9.619830,-6.564773,-4.467350,-1.213163
4.416000,-1.264123,-9.210729,-7.613094,-5.360441,-1.097093
4.420000,0.608993,-7.935998,-8.612617,-5.881844,-0.974858
4.424000,2.060974,-5.949927,-9.280369,-6.277670,-0.851999
4.428000,3.049247,-3.554489,-9.316851,-6.729367,-0.733875
4.432000,3.652674,-1.123055,-8.515668,-7.259470,-0.625417
4.436000,4.026051,0.995558,-6.849131,-7.708404,-0.530997
4.440000,4.334724,2.562564,-4.499005,-7.791427,-0.454232
4.444000,4.688782,3.499230,-1.818816,-7.214830,-0.397837
4.448000,5.098119,3.885066,0.759036,-5.806146,-0.363556
4.452000,5.462362,3.908033,2.841888,-3.607274,-0.352073
4.456000,5.598931,3.783937,4.181168,-0.893493,-0.363005
4.460000,5.300968,3.671965,4.727590,1.892225,-0.394916
4.464000,4.407848,3.615419,4.621236,4.266216,-0.445367
4.468000,2.866443,3.526841,4.119303,5.848534,-0.511049
4.472000,0.764844,3.222433,3.491555,6.470707,-0.587853
4.476000,-1.674077,2.494945,2.918936,6.209880,-0.671112
4.480000,-4.136030,1.199276,2.432858,5.337582,-0.755722
4.484000,-6.286938,-0.677211,1.915611,4.204502,-0.836358
4.488000,-7.849651,-2.983989,1.161627,3.106572,-0.907739
4.492000,-8.667145,-5.428400,-0.023884,2.182130,-0.964742
4.496000,-8.731842,-7.642503,-1.724839,1.380893,-1.002700
4.500000,-8.175442,-9.277125,-3.851098,0.512721,-1.017531
4.504000,-7.221401,-10.092463,-6.136010,-0.642758,-1.005954
4.508000,-6.115768,-10.018195,-8.197414,-2.211962,-0.965580
4.512000,-5.056367,-9.164615,-9.644239,-4.136443,-0.895053
4.516000,-4.142262,-7.781703,-10.191313,-6.155510,-0.794113
4.520000,-3.356474,-6.179705,-9.744954,-7.871104,-0.663602
4.524000,-2.588613,-4.636906,-8.428602,-8.871712,-0.505469
4.528000,-1.687184,-3.324352,-6.541033,-8.870814,-0.322714
4.532000,-0.527395,-2.270874,-4.461845,-7.808614,-0.119299
4.536000,0.929267,-1.377884,-2.535507,-5.878125,0.099986
4.540000,2.601106,-0.479137,-0.975555,-3.465656,0.329731
4.544000,4.289989,0.577474,0.180227,-1.027367,0.563993
4.548000,5.723272,1.853039,1.049988,1.052631,0.796614
4.552000,6.620977,3.272505,1.830877,2.570212,1.021331
4.556000,6.770968,4.628572,2.697147,3.538892,1.232056
4.560000,6.088302,5.633248,3.708972,4.141977,1.423114
4.564000,4.642474,6.002069,4.767509,4.624662,1.589354
4.568000,2.643753,5.543835,5.633259,5.166948,1.726431
4.572000,0.393078,4.227497,6.002146,5.789674,1.830847
4.576000,-1.791783,2.203180,5.613665,6.331552,1.900183
4.580000,-3.651082,-0.229389,4.351985,6.506357,1.933110
4.584000,-5.038703,-2.696263,2.304318,6.018486,1.929451
4.588000,-5.942634,-4.844346,-0.244746,4.694370,1.890178
4.592000,-6.466674,-6.429459,-2.884760,2.574901,1.817390
4.596000,-6.778001,-7.366548,-5.190014,-0.065124,1.714189
4.600000,-7.039876,-7.731339,-6.835794,-2.782999,1.584623
4.604000,-7.348474,-7.711912,-7.679567,-5.094953,1.433451
4.608000,-7.694590,-7.528360,-7.781177,-6.619844,1.266094
4.612000,-7.962223,-7.348164,-7.357376,-7.188193,1.088280
4.616000,-7.963917,-7.224663,-6.687497,-6.875908,0.905970
4.620000,-7.503074,-7.079996,-6.005477,-5.952793,0.725039
4.624000,-6.443815,-6.737168,-5.416641,-4.767841,0.551140
4.628000,-4.767389,-5.991444,-4.868842,-3.615441,0.389478
4.632000,-2.596961,-4.695645,-4.187241,-2.632491,0.244589
4.636000,-0.182188,-2.831992,-3.159683,-1.767590,0.120245
4.640000,2.152443,-0.544219,-1.640967,-0.829649,0.019273
4.644000,4.081138,1.880325,0.362709,0.402047,-0.056477
4.648000,5.353360,4.077248,2.661907,2.053683,-0.106253
4.652000,5.849824,5.697122,4.916894,4.066235,-0.130359
4.656000,5.602990,6.497109,6.727038,6.178334,-0.130129
4.660000,4.777040,6.402963,7.746797,7.990664,-0.107880
4.664000,3.613928,5.521988,7.788830,9.089906,-0.066777
4.668000,2.361145,4.103844,6.879830,9.187885,-0.010690
4.672000,1.203630,2.462258,5.249024,8.223193,0.055944
4.676000,0.219201,0.882277,3.254070,6.387100,0.128392
4.680000,-0.629392,-0.456056,1.270914,4.064619,0.201709
4.684000,-1.464663,-1.515798,-0.416860,1.710744,0.271103
4.688000,-2.436884,-2.389819,-1.689013,-0.291023,0.332023
4.692000,-3.656382,-3.243146,-2.598604,-1.737077,0.380446
4.696000,-5.138247,-4.231327,-3.318905,-2.640662,0.413014
4.700000,-6.775672,-5.422539,-4.048237,-3.184547,0.427230
4.704000,-8.353706,-6.751129,-4.909112,-3.612816,0.421591
4.708000,-9.597285,-8.018413,-5.878591,-4.104045,0.395669
4.712000,-10.242003,-8.942497,-6.776756,-4.677801,0.350181
4.716000,-10.106952,-9.241063,-7.318511,-5.171051,0.287020
4.720000,-9.147983,-8.721705,-7.210977,-5.295656,0.209225
4.724000,-7.475467,-7.349554,-6.262924,-4.755001,0.120926
4.728000,-5.331268,-5.270607,-4.466449,-3.373867,0.027217
4.732000,-3.030865,-2.781889,-2.021511,-1.192175,-0.065941
4.736000,-0.888477,-0.258392,0.706098,1.515678,-0.151902
4.740000,0.857042,1.943762,3.282429,4.306942,-0.223555
4.744000,2.089837,3.574339,5.323733,6.697466,-0.273462
4.748000,2.829251,4.542621,6.597960,8.305648,-0.294160
4.752000,3.201964,4.920354,7.075053,8.960759,-0.278291
4.756000,3.385150,4.895441,6.910439,8.736979,-0.218895
4.760000,3.537343,4.692325,6.369710,7.902681,-0.109539
4.764000,3.739290,4.486539,5.721843,6.805129,0.055445
4.768000,3.962954,4.341470,5.139995,5.736917,0.280863
4.772000,4.078494,4.188770,4.645037,4.833631,0.570518
4.776000,3.896554,3.858459,4.111487,4.042403,0.927081
4.780000,3.233910,3.148302,3.332559,3.171494,1.352142
4.784000,1.981676,1.909251,2.120484,1.999555,1.846128
4.788000,0.155689,0.118079,0.404389,0.400617,2.408411
4.792000,-2.087702,-2.087818,-1.710186,-1.566060,3.037233
4.796000,-4.476172,-4.427533,-3.944835,-3.638104,3.729978
4.800000,-6.679513,-6.539806,-5.914107,-5.414890,4.483255
4.804000,-8.385956,-8.075387,-7.233996,-6.481775,5.292980
4.808000,-9.375456,-8.788856,-7.635755,-6.549012,6.154713
4.812000,-9.568162,-8.601915,-7.046662,-5.553373,7.063517
4.816000,-9.036016,-7.618809,-5.610456,-3.684588,8.014563
4.820000,-7.973293,-6.088924,-3.639870,-1.326389,9.003010
4.824000,-6.636420,-4.329136,-1.518374,1.067479,10.024293
4.828000,-5.270411,-2.631208,0.415294,3.114253,11.074263
4.832000,-4.044454,-1.183723,1.959802,4.610470,12.149108
4.836000,-3.014023,-0.032138,3.091620,5.568975,13.245786
4.840000,-2.122133,0.910804,3.938970,6.172147,14.361837
4.844000,-1.235851,1.808726,4.702371,6.663163,15.495517
4.848000,-0.208646,2.820434,5.551126,7.219045,16.645525
4.852000,1.053547,4.021435,6.535616,7.857749,17.811313
4.856000,2.541917,5.355236,7.546406,8.414598,18.992771
4.860000,4.126847,6.631965,8.338107,8.599868,20.190101
4.864000,5.579700,7.575982,8.609205,8.115212,21.403823
4.868000,6.627200,7.907316,8.110678,6.784282,22.634237
4.872000,7.024617,7.432332,6.744882,4.645908,23.881687
4.876000,6.625309,6.112344,4.618895,1.973758,25.146141
4.880000,5.426458,4.088879,2.032280,-0.789671,26.427055
4.884000,3.577699,1.656733,-0.597371,-3.159411,27.722998
4.888000,1.348380,-0.809582,-2.848813,-4.753532,29.031856
4.892000,-0.935596,-2.950237,-4.411238,-5.400044,30.350472
4.896000,-2.969634,-4.509604,-5.160666,-5.171841,31.674562
4.900000,-4.539134,-5.391191,-5.174963,-4.335521,32.998785
4.904000,-5.560255,-5.662871,-4.682826,-3.236909,34.316374
4.908000,-6.083240,-5.512389,-3.966909,-2.166722,35.619652
4.912000,-6.256015,-5.168399,-3.256172,-1.259169,36.899776
4.916000,-6.262805,-4.814458,-2.646094,-0.460209,38.146945
4.920000,-6.254940,-4.524006,-2.074725,0.422987,39.350599
4.924000,-6.296493,-4.238414,-1.362626,1.611884,40.499373
4.928000,-6.341075,-3.794667,-0.300864,3.232578,41.581695
4.932000,-6.247041,-2.993169,1.244860,5.225358,42.585822
4.936000,-5.826133,-1.683157,3.253937,7.327160,43.500156
4.940000,-4.911453,0.163653,5.522622,9.135790,44.313377
4.944000,-3.422842,2.416955,7.703751,10.235248,45.015034
4.948000,-1.410609,4.801970,9.398975,10.334162,45.595550
4.952000,0.938386,6.960847,10.275143,9.367589,46.046608
4.956000,3.333428,8.544825,10.164623,7.523570,46.361325
4.960000,5.443665,9.305651,9.115450,5.184538,46.534434
4.964000,6.976131,9.161373,7.374223,2.803084,46.562512
4.968000,7.744665,8.212970,5.307466,0.761343,46.444041
4.972000,7.710391,6.709219,3.289421,-0.737743,46.179452
4.976000,6.983330,4.969888,1.593828,-1.706770,45.771140
4.980000,5.784816,3.293571,0.326863,-2.327582,45.223497
4.984000,4.381711,1.876996,-0.577225,-2.842134,44.542705
4.988000,3.012808,0.773707,-1.298419,-3.426341,43.736637
4.992000,1.828443,-0.097774,-2.033956,-4.096548,42.814634
4.996000,0.861128,-0.899466,-2.898184,-4.686332,41.787469
5.000000,0.034830,-1.793679,-3.857300,-4.904403,40.666818
5.004000,-0.791415,-2.863123,-4.722822,-4.450674,39.465116
5.008000,-1.758464,-4.060678,-5.207967,-3.147576,38.195315
5.012000,-2.942710,-5.205438,-5.027401,-1.032801,36.870402
5.016000,-4.311327,-6.027965,-4.005475,1.620393,35.503508
5.020000,-5.714093,-6.251276,-2.154046,4.369587,34.107150
5.024000,-6.912221,-5.680503,0.308908,6.729991,32.693245
5.028000,-7.638819,-4.273121,3.006986,8.318661,31.272784
5.032000,-7.672607,-2.166630,5.505211,8.962460,29.855939
5.036000,-6.903525,0.347403,7.429880,8.732957,28.451440
5.040000,-5.370392,2.894347,8.566107,7.895206,27.066792
5.044000,-3.259497,5.111366,8.902896,6.793212,25.708152
5.048000,-0.863500,6.737558,8.611034,5.716060,24.380247
5.052000,1.486469,7.670420,7.963583,4.796608,23.086720
5.056000,3.499771,7.974124,7.228086,3.979580,21.829721
5.060000,4.989459,7.835975,6.569592,3.071321,20.610391
5.064000,5.905491,7.488777,5.998466,1.849679,19.428865
5.068000,6.327700,7.123771,5.381660,0.188603,18.284468
5.072000,6.423088,6.824481,4.511878,-1.851377,17.176075
5.076000,6.379887,6.541879,3.208791,-4.006612,16.102014
5.080000,6.339828,6.119988,1.415165,-5.873730,15.060447
5.084000,6.349262,5.361961,-0.748783,-7.035215,14.049518
5.088000,6.344146,4.115494,-2.993328,-7.197802,13.067727
5.092000,6.173099,2.346757,-4.930736,-6.295040,12.113730
5.096000,5.652089,0.179144,-6.184907,-4.513441,11.186742
5.100000,4.632874,-2.118860,-6.503931,-2.233514,10.286551
5.104000,3.065463,-4.193613,-5.836471,0.092869,9.413536
5.108000,1.033557,-5.696507,-4.346143,2.084373,8.568908
5.112000,-1.248216,-6.377270,-2.358701,3.538540,7.754362
5.116000,-3.475276,-6.150013,-0.260740,4.467903,6.972269
5.120000,-5.321707,-5.112588,1.615490,5.053483,6.225485
5.124000,-6.518156,-3.512825,3.081911,5.536547,5.517265
5.128000,-6.915006,-1.673719,4.128804,6.091657,4.851206
5.132000,-6.515025,0.100157,4.894552,6.733593,4.230907
5.136000,-5.464833,1.603664,5.582105,7.294341,3.659884
5.140000,-4.009110,2.775134,6.355862,7.480864,3.141403
5.144000,-2.421231,3.690054,7.255807,6.991610,2.678353
5.148000,-0.929889,4.509219,8.162409,5.647581,2.272924
5.152000,0.335557,5.397937,8.825090,3.485856,1.926598
5.156000,1.366068,6.446171,8.945572,0.778613,1.639946
5.160000,2.255699,7.616171,8.287025,-2.031871,1.412569
5.164000,3.151018,8.735994,6.770299,-4.460137,1.243048
5.168000,4.184869,9.542942,4.521965,-6.122525,1.128871
5.172000,5.414530,9.762787,1.856499,-6.845162,1.066479
5.176000,6.784290,9.199470,-0.803429,-6.697885,1.051306
5.180000,8.125048,7.806988,-3.041560,-5.944201,1.077888
5.184000,9.191789,5.718139,-4.561456,-4.926358,1.139982
5.188000,9.728059,3.221293,-5.258208,-3.931933,1.230700
5.192000,9.539660,0.690931,-5.227354,-3.091949,1.342743
5.196000,8.554588,-1.507497,-4.709070,-2.349924,1.468537
5.200000,6.852673,-3.107590,-3.988554,-1.511562,1.600498
5.204000,4.653894,-4.001611,-3.289162,-0.353928,1.731214
5.208000,2.270112,-4.249667,-2.696250,1.249038,1.853709
5.212000,0.031507,-4.038670,-2.138379,3.236487,1.961580
5.216000,-1.789590,-3.605317,-1.431772,5.343980,2.049243
5.220000,-3.036750,-3.148714,-0.371335,7.166821,2.112037
5.224000,-3.694360,-2.762217,1.166294,8.286077,2.146382
5.228000,-3.871013,-2.406562,3.145271,8.407059,2.149872
5.232000,-3.750021,-1.932726,5.348866,7.461438,2.121308
5.236000,-3.520722,-1.147049,7.423068,5.634152,2.060719
5.240000,-3.313045,0.104599,8.972841,3.304562,1.969334
5.244000,-3.154984,1.861434,9.678300,0.923299,1.849482
5.248000,-2.965804,4.006959,9.391849,-1.129295,1.704529
5.252000,-2.586977,6.279375,8.182758,-2.650918,1.538665
5.256000,-1.841393,8.328946,6.314439,-3.653815,1.356803
5.260000,-0.602153,9.808109,4.161322,-4.318441,1.164345
5.264000,1.149859,10.464388,2.095215,-4.885259,0.966939
5.268000,3.298944,10.208109,0.379206,-5.527380,0.770339
5.272000,5.606109,9.133771,-0.894886,-6.258047,0.580084
5.276000,7.757437,7.488548,-1.805029,-6.907464,0.401419
5.280000,9.437167,5.597903,-2.537776,-7.180980,0.238952
5.284000,10.403523,3.772397,-3.288454,-6.775350,0.096604
5.288000,10.546141,2.225302,-4.163201,-5.510097,-0.022613
5.292000,9.909147,1.026667,-5.117222,-3.421447,-0.116640
5.296000,8.673384,0.106509,-5.953965,-0.780793,-0.184484
5.300000,7.103264,-0.694254,-6.385677,1.969632,-0.226234
5.304000,5.473938,-1.544119,-6.135379,4.344604,-0.243042
5.308000,4.000418,-2.540163,-5.043297,5.959536,-0.237050
5.312000,2.789237,-3.653889,-3.140975,6.639364,-0.211354
5.316000,1.825607,-4.722667,-0.664049,6.452822,-0.169787
5.320000,0.999068,-5.490586,2.000853,5.661746,-0.116867
5.324000,0.159546,-5.686366,4.419780,4.606784,-0.057495
5.328000,-0.815806,-5.113002,6.229665,3.573689,0.003135
5.332000,-1.963988,-3.720735,7.233078,2.692230,0.059813
5.336000,-3.207283,-1.637829,7.438230,1.904706,0.107529
5.340000,-4.360753,0.850678,7.030799,1.015753,0.141601
5.344000,-5.176918,3.371265,6.290576,-0.198054,0.157977
5.348000,-5.413784,5.555404,5.483086,-1.862583,0.153292
5.352000,-4.907189,7.132193,4.764680,-3.916754,0.125104
5.356000,-3.624679,7.988243,4.135359,-6.094952,0.071933
5.360000,-1.685579,8.179693,3.454935,-7.991676,-0.006626
5.364000,0.659871,7.893106,2.516008,-9.186386,-0.109915
5.368000,3.085638,7.368805,1.146139,-9.382513,-0.236168
5.372000,5.267232,6.813671,-0.698166,-8.510276,-0.382626
5.376000,6.954933,6.330877,-2.881831,-6.752888,-0.545571
5.380000,8.025773,5.890890,-5.105239,-4.487900,-0.720530
5.384000,8.498491,5.352013,-6.978811,-2.165079,-0.902303
5.388000,8.508722,4.523577,-8.135490,-0.164108,-1.085319
5.392000,8.253176,3.249820,-8.340864,1.313338,-1.263681
5.396000,7.919313,1.486425,-7.565085,2.279534,-1.431502
5.400000,7.623176,-0.657646,-5.991077,2.914493,-1.583025
5.404000,7.373972,-2.926817,-3.957102,3.457341,-1.712881
5.408000,7.075532,-4.976112,-1.851723,4.080265,-1.816314
5.412000,6.564687,-6.458862,0.000133,4.794921,-1.889286
5.416000,5.673960,-7.120538,1.423704,5.429890,-1.928703
5.420000,4.299894,-6.867725,2.423558,5.688842,-1.932475
5.424000,2.454346,-5.791617,3.147435,5.266976,-1.899636
5.428000,0.283416,-4.138248,3.800498,3.982582,-1.830366
5.432000,-1.953214,-2.235482,4.541433,1.870605,-1.725994
5.436000,-3.937674,-0.399561,5.400110,-0.798067,-1.588961
5.440000,-5.369064,1.147936,6.246898,-3.581404,-1.422746
5.444000,-6.037097,2.329240,6.826621,-5.993742,-1.231705
5.448000,-5.872303,3.208602,6.845082,-7.650048,-1.020991
5.452000,-4.959555,3.943324,6.078239,-8.374105,-0.796278
5.456000,-3.510989,4.705003,4.465451,-8.233221,-0.563657
5.460000,-1.806577,5.597908,2.152676,-7.487657,-0.329380
5.464000,-0.119048,6.603074,-0.531648,-6.476267,-0.099639
5.468000,1.353662,7.567149,-3.160338,-5.483406,0.119665
5.472000,2.529615,8.241243,-5.323789,-4.636964,0.323082
5.476000,3.447403,8.357100,-6.740648,-3.877960,0.505858
5.480000,4.231853,7.717127,-7.325047,-3.010156,0.664001
5.484000,5.034269,6.267704,-7.190120,-1.809879,0.794532
5.488000,5.965358,4.132605,-6.586806,-0.150765,0.895489
5.492000,7.041864,1.593073,-5.802146,1.905821,0.966036
5.496000,8.164860,-0.977623,-5.053463,4.093118,1.006428
5.500000,9.136471,-3.209226,-4.415764,6.004557,1.018033
5.504000,9.710657,-4.825822,-3.808299,7.218240,1.003219
5.508000,9.663967,-5.708602,-3.043652,7.436119,0.965293
5.512000,8.864688,-5.909721,-1.920847,6.586436,0.908307
5.516000,7.320403,-5.615066,-0.328144,4.850945,0.836971
5.520000,5.188189,-5.068651,1.683813,2.605959,0.756354
5.524000,2.744876,-4.484796,3.885363,0.299696,0.671789
5.528000,0.324813,-3.976418,5.916859,-1.689022,0.588565
5.532000,-1.757721,-3.523699,7.387221,-3.158367,0.511788
5.536000,-3.279793,-2.992164,7.990719,-4.120960,0.446155
5.540000,-4.153578,-2.194258,7.600152,-4.756103,0.395738
5.544000,-4.431960,-0.972560,6.305962,-5.302169,0.363876
5.548000,-4.275559,0.722506,4.387352,-5.930023,0.352987
5.552000,-3.891266,2.789007,2.225912,-6.649665,0.364520
5.556000,-3.461683,4.978773,0.190020,-7.288093,0.398853
5.560000,-3.087219,6.951212,-1.468533,-7.547240,0.455298
5.564000,-2.757976,8.361111,-2.672384,-7.120885,0.532124
5.568000,-2.363874,8.952090,-3.512095,-5.825617,0.626604
5.572000,-1.739668,8.627109,-4.179600,-3.695504,0.735115
5.576000,-0.730251,7.474022,-4.868158,-1.000970,0.853314
5.580000,0.742884,5.737728,-5.675230,1.816518,0.976228
5.584000,2.637328,3.748029,-6.545550,4.271263,1.098546
5.588000,4.778613,1.827294,-7.274786,5.977125,1.214678
5.592000,6.890642,0.204514,-7.575101,6.756965,1.319136
5.596000,8.656409,-1.034407,-7.178368,6.676898,1.406609
5.600000,9.795024,-1.948017,-5.941459,5.995488,1.472259
5.604000,10.130852,-2.691633,-3.915287,5.049877,1.511850
5.608000,9.636352,-3.439870,-1.352757,4.122773,1.521954
5.612000,8.435976,-4.304114,1.350563,3.340526,1.500092
5.616000,6.769932,-5.274826,3.762027,2.642952,1.444807
5.620000,4.929095,-6.208050,5.530172,1.832667,1.355771
5.624000,3.179520,-6.861994,6.476123,0.685464,1.233770
5.628000,1.699219,-6.971646,6.626774,-0.925051,1.080741
5.632000,0.544070,-6.338760,6.182284,-2.936984,0.899680
5.636000,-0.347373,-4.906048,5.428429,-5.083145,0.694536
5.640000,-1.112664,-2.792161,4.627840,-6.955842,0.470117
5.644000,-1.901863,-0.275141,3.927975,-8.131434,0.231932
5.648000,-2.811533,2.273440,3.318298,-8.310404,-0.014080
5.652000,-3.837860,4.481121,2.651821,-7.419384,-0.261627
5.656000,-4.862485,6.067469,1.721545,-5.638507,-0.504401
5.660000,-5.677593,6.908370,0.363400,-3.342299,-0.736210
5.664000,-6.042370,7.052068,-1.452086,-0.978231,-0.951219
5.668000,-5.755304,6.683660,-3.575731,1.075743,-1.144170
5.672000,-4.719417,6.050739,-5.698200,2.618388,-1.310559
5.676000,-2.981834,5.374976,-7.429785,3.662179,-1.446755
5.680000,-0.735033,4.779137,-8.412956,4.385954,-1.550138
5.684000,1.721888,4.253040,-8.431526,5.027061,-1.619197
5.688000,4.051314,3.669644,-7.477202,5.754955,-1.653563
5.692000,5.954825,2.844498,-5.752066,6.578405,-1.653992
5.696000,7.239579,1.618928,-3.605415,7.322556,-1.622346
5.700000,7.854116,-0.061983,-1.427519,7.687678,-1.561501
5.704000,7.884849,-2.103788,0.465012,7.365834,-1.475248
5.708000,7.514885,-4.265352,1.911064,6.172396,-1.368092
5.712000,6.958005,-6.210937,2.929366,4.140169,-1.245160
5.716000,6.389112,-7.596916,3.676909,1.538535,-1.111901
5.720000,5.891467,-8.164993,4.360141,-1.190619,-0.973968
5.724000,5.436300,-7.814762,5.131741,-3.561817,-0.836964
5.728000,4.901437,-6.630565,6.011148,-5.188424,-0.706200
5.732000,4.121922,-4.855796,6.859214,-5.892296,-0.586556
5.736000,2.957992,-2.822528,7.416618,-5.737946,-0.482264
5.740000,1.356852,-0.858171,7.393867,-4.982629,-0.396755
5.744000,-0.608565,0.800505,6.580390,-3.961807,-0.332524
5.748000,-2.738711,2.059765,4.934387,-2.956463,-0.291071
5.752000,-4.745294,2.972299,2.620416,-2.091576,-0.272816
5.756000,-6.316983,3.691657,-0.019852,-1.305483,-0.277121
5.760000,-7.197152,4.395420,-2.555758,-0.400045,-0.302291
5.764000,-7.247699,5.201982,-4.585168,0.849583,-0.345684
5.768000,-6.483488,6.111280,-5.842560,2.569642,-0.403773
5.772000,-5.066365,6.988985,-6.261694,4.698320,-0.472349
5.776000,-3.260852,7.600305,-5.972731,6.967354,-0.546601
5.780000,-1.364211,7.683928,-5.236858,8.967725,-0.621431
5.784000,0.368373,7.041023,-4.342304,10.274566,-0.691536
5.788000,1.781891,5.610499,-3.499629,10.586675,-0.751721
5.792000,2.847329,3.506448,-2.773597,9.828894,-0.797041
5.796000,3.648126,1.002618,-2.074139,8.179629,-0.823022
5.800000,4.332237,-1.530753,-1.210830,6.012166,-0.825865
5.804000,5.046221,-3.719314,0.012420,3.772377,-0.802573
5.808000,5.871334,-5.278481,1.695820,1.837362,-0.751112
5.812000,6.782963,-6.078660,3.773686,0.407979,-0.670475
5.816000,7.645225,-6.164306,6.004092,-0.528020,-0.560765
5.820000,8.243642,-5.719703,8.022322,-1.149401,-0.423180
5.824000,8.346738,-4.995854,9.442719,-1.692460,-0.260006
5.828000,7.777896,-4.221536,9.974203,-2.325688,-0.074543
5.832000,6.476473,-3.529213,9.510125,-3.056081,0.128990
5.836000,4.528756,-2.918407,8.161941,-3.707379,0.345603
5.840000,2.159255,-2.269394,6.224229,-3.978069,0.569750
5.844000,-0.315631,-1.401158,4.084188,-3.558737,0.795439
5.848000,-2.559837,-0.153794,2.106279,-2.263486,1.016474
5.852000,-4.295409,1.533137,0.530264,-0.123822,1.226729
5.856000,-5.362716,3.572568,-0.581214,2.591188,1.420262
5.860000,-5.747564,5.730657,-1.330703,5.440295,1.591629
5.864000,-5.568529,7.676864,-1.915578,7.937756,1.735990
5.868000,-5.028063,9.069014,-2.526219,9.696059,1.849322
5.872000,-4.343667,9.647594,-3.251306,10.536139,1.928562
5.876000,-3.679750,9.308619,-4.024871,10.521061,1.971715
5.880000,-3.100873,8.132860,-4.635722,9.906515,1.977901
5.884000,-2.559991,6.362290,-4.796456,9.026386,1.947409
5.888000,-1.924652,4.330597,-4.248623,8.159717,1.881661
5.892000,-1.033054,2.370276,-2.865987,7.429989,1.783184
5.896000,0.237598,0.725611,-0.719122,6.774129,1.655476
5.900000,1.913260,-0.502056,1.923097,5.993013,1.502918
5.904000,3.891680,-1.359176,4.656516,4.861194,1.330593
5.908000,5.951353,-1.997869,7.051217,3.252116,1.144107
5.912000,7.796001,-2.598340,8.768326,1.228083,0.949348
5.916000,9.125631,-3.286049,9.647297,-0.942101,0.752350
5.920000,9.711623,-4.070497,9.734143,-2.848541,0.558980
5.924000,9.455532,-4.826851,9.242708,-4.064611,0.374821
5.928000,8.414444,-5.327906,8.464256,-4.287710,0.204913
5.932000,6.785211,-5.316047,7.657922,-3.441039,0.053576
5.936000,4.852233,-4.591749,6.961618,-1.701213,-0.075702
5.940000,2.914709,-3.090621,6.354501,0.559545,-0.180401
5.944000,1.212878,-0.921562,5.683123,2.896857,-0.259059
5.948000,-0.123584,1.645760,4.741471,4.934261,-0.311310
5.952000,-1.093171,4.242755,3.374397,6.471481,-0.337867
5.956000,-1.799920,6.493652,1.565987,7.520765,-0.340485
5.960000,-2.399869,8.109440,-0.520047,8.260063,-0.321878
5.964000,-3.033459,8.955570,-2.565693,8.925130,-0.285628
5.968000,-3.765567,9.072451,-4.181907,9.682889,-0.235968
5.972000,-4.551258,8.643436,-5.021971,10.538951,-0.177702
5.976000,-5.239202,7.922657,-4.888188,11.315450,-0.115891
5.980000,-5.611590,7.146091,-3.793842,11.709043,-0.055781
5.984000,-5.449835,6.455582,-1.959571,11.408564,-0.002451
5.988000,-4.605218,5.860412,0.254660,10.226782,0.039280
5.992000,-3.054089,5.248217,2.458690,8.193921,0.065123
5.996000,-0.920507,4.441448,4.344467,5.578455,0.071462
6.000000,1.541963,3.278768,5.765270,2.821107,0.055503
6.004000,4.004829,1.694445,6.753541,0.408135,0.015423
6.008000,6.139364,-0.232058,7.475026,-1.272921,-0.049580
6.012000,7.692240,-2.274419,8.137431,-2.041812,-0.139240
6.016000,8.539339,-4.107253,8.886744,-1.960403,-0.252177
6.020000,8.704145,-5.390637,9.732023,-1.282748,-0.386004
6.024000,8.335431,-5.863689,10.524783,-0.341067,-0.537341
6.028000,7.651836,-5.418997,11.002491,0.587255,-0.701993
6.032000,6.871109,-4.133946,10.881019,1.380197,-0.875036
6.036000,6.144599,-2.248686,9.963767,2.101888,-1.051025
6.040000,5.517277,-0.098482,8.227863,2.952825,-1.224220
6.044000,4.924359,1.979219,5.856360,4.158925,-1.388719
6.048000,4.225128,3.732899,3.203043,5.846952,-1.538778
6.052000,3.263822,5.053095,0.701365,7.953886,-1.668885
6.056000,1.936291,5.980934,-1.255280,10.210629,-1.774123
6.060000,0.244126,6.666347,-2.417769,12.205740,-1.850228
6.064000,-1.683188,7.292203,-2.739411,13.511564,-1.893827
6.068000,-3.605499,7.991000,-2.367195,13.823636,-1.902517
6.072000,-5.223351,8.781536,-1.571794,13.063486,-1.874995
6.076000,-6.252448,9.548720,-0.641843,11.406206,-1.811095
6.080000,-6.495993,10.072901,0.219248,9.222030,-1.711805
6.084000,-5.896809,10.100212,0.957582,6.954541,-1.579221
6.088000,-4.553374,9.430814,1.671747,4.979142,-1.416543
6.092000,-2.694293,7.996570,2.555075,3.495593,-1.227867
6.096000,-0.619691,5.901348,3.798169,2.491638,-1.018141
6.100000,1.374519,3.410367,5.489309,1.789723,-0.792899
6.104000,3.066439,0.890137,7.548420,1.154928,-0.558155
6.108000,4.353917,-1.281926,9.721494,0.421520,-0.320166
6.112000,5.262787,-2.813288,11.639896,-0.414720,-0.085156
6.116000,5.916041,-3.564444,12.924140,-1.174089,0.140797
6.120000,6.475437,-3.571712,13.298685,-1.551699,0.352086
6.124000,7.073261,-3.017556,12.677838,-1.234880,0.543666
6.128000,7.756637,-2.159113,11.193664,-0.034759,0.711272
6.132000,8.461063,-1.239375,9.155514,2.019152,0.851564
6.136000,9.022068,-0.409530,6.955676,4.659581,0.962236
6.140000,9.222175,0.311339,4.952995,7.446139,1.042062
6.144000,8.858914,1.027962,3.375218,9.892050,1.090932
6.148000,7.813769,1.914455,2.270061,11.609269,1.109859
6.152000,6.100751,3.133425,1.523265,12.416776,1.100906
6.156000,3.879424,4.755757,0.932759,12.374975,1.067075
6.160000,1.427937,6.709746,0.311336,11.736470,1.012223
6.164000,-0.917624,8.776334,-0.420435,10.831658,0.940856
6.168000,-2.841186,10.636027,-1.186163,9.936462,0.858004
6.172000,-4.118095,11.950953,-1.768045,9.171102,0.768928
6.176000,-4.661924,12.459153,-1.880004,8.469984,0.679011
6.180000,-4.533407,12.049780,-1.273899,7.632043,0.593474
6.184000,-3.909164,10.796575,0.159449,6.430378,0.517212
6.188000,-3.020683,8.937798,2.330074,4.738237,0.454558
6.192000,-2.082467,6.809948,4.953263,2.618692,0.409165
6.196000,-1.230382,4.754902,7.618185,0.341578,0.383810
6.200000,-0.489233,3.031864,9.898138,-1.680399,0.380323
6.204000,0.222427,1.757422,11.467791,-3.018279,0.399492
6.208000,1.051165,0.896231,12.185561,-3.366008,0.441039
6.212000,2.144715,0.300475,12.116290,-2.643410,0.503616
6.216000,3.586605,-0.215449,11.487114,-1.023767,0.584885
6.220000,5.347741,-0.790820,10.593925,1.123847,0.681541
6.224000,7.273378,-1.454104,9.691840,3.357316,0.789525
6.228000,9.108009,-2.099990,8.909044,5.302251,0.904093
6.232000,10.554593,-2.516605,8.214261,6.759384,1.020072
6.236000,11.348438,-2.453883,7.448211,7.740834,1.131999
6.240000,11.327748,-1.711939,6.406425,8.423769,1.234348
6.244000,10.477558,-0.218990,4.943043,9.042469,1.321789
6.248000,8.936000,1.926236,3.056266,9.761389,1.389319
6.252000,6.959736,4.463255,0.923183,10.583297,1.432536
6.256000,4.859933,7.027249,-1.129948,11.326806,1.447734
6.260000,2.924838,9.240195,-2.715356,11.685392,1.432146
6.264000,1.354176,10.805676,-3.498014,11.344841,1.383981
6.268000,0.220815,11.579341,-3.299390,10.114741,1.302557
6.272000,-0.527965,11.593471,-2.154155,8.023413,1.188299
6.276000,-1.032216,11.029414,-0.301000,5.337571,1.042793
6.280000,-1.456631,10.147154,1.890528,2.497372,0.868683
6.284000,-1.923508,9.196460,4.030868,-0.010707,0.669642
6.288000,-2.461632,8.337874,5.822105,-1.797912,0.450186
6.292000,-2.987779,7.600105,7.131658,-2.681947,0.215649
6.296000,-3.327120,6.885901,8.006024,-2.722223,-0.028181
6.300000,-3.265834,6.024738,8.619303,-2.169601,-0.275087
6.304000,-2.620920,4.852851,9.179411,-1.352921,-0.518765
6.308000,-1.305825,3.293938,9.825753,-0.546180,-0.752958
6.312000,0.628027,1.412340,10.556839,0.131801,-0.971690
6.316000,2.987593,-0.581173,11.215365,0.747968,-1.169526
6.320000,5.474533,-2.372504,11.536126,1.504630,-1.341689
6.324000,7.751094,-3.626465,11.241277,2.629282,-1.484269
6.328000,9.518448,-4.080101,10.148561,4.249013,-1.594322
6.332000,10.583940,-3.619306,8.254286,6.300408,-1.669976
6.336000,10.900306,-2.314131,5.759499,8.512645,-1.710503
6.340000,10.564553,-0.400926,3.029633,10.472683,-1.716320
6.344000,9.778218,1.783040,0.498918,11.749787,-1.688960
6.348000,8.782025,3.890808,-1.447902,12.036330,-1.631011
6.352000,7.783828,5.656920,-2.578982,11.250583,-1.545990
6.356000,6.901944,6.957025,-2.867413,9.564297,-1.438249
6.360000,6.140348,7.820691,-2.476528,7.344786,-1.312739
6.364000,5.402224,8.393624,-1.685692,5.032795,-1.174888
6.368000,4.537485,8.863963,-0.783271,3.002477,-1.030348
6.372000,3.408777,9.377799,0.035079,1.452236,-0.884809
6.376000,1.954611,9.973107,0.726202,0.369834,-0.743740
6.380000,0.230627,10.554411,1.397438,-0.421540,-0.612243
6.384000,-1.585153,10.917627,2.244181,-1.154872,-0.494839
6.388000,-3.226503,10.816878,3.451371,-1.993753,-0.395271
6.392000,-4.402769,10.052128,5.094803,-2.939358,-0.316424
6.396000,-4.873673,8.547981,7.079877,-3.808666,-0.260177
6.400000,-4.514736,6.397773,9.142032,-4.293464,-0.227363
6.404000,-3.353546,3.857744,10.909088,-4.077626,-0.217747
6.408000,-1.565725,1.289841,12.008801,-2.969511,-0.230012
6.412000,0.567727,-0.927252,12.181859,-0.996214,-0.261872
6.416000,2.730067,-2.493515,11.363832,1.576465,-0.310108
6.420000,4.644890,-3.259813,9.706901,4.308908,-0.370760
6.424000,6.137820,-3.254436,7.534478,6.714390,-0.439250
6.428000,7.166239,-2.657509,5.242830,8.403628,-0.510546
6.432000,7.808908,-1.731710,3.185048,9.193567,-0.579448
6.436000,8.220849,-0.733402,1.575467,9.142330,-0.640700
6.440000,8.567135,0.167482,0.447357,8.499300,-0.689270
6.444000,8.957930,0.932782,-0.325268,7.591611,-0.720517
6.448000,9.403128,1.652061,-0.948555,6.691871,-0.730412
6.452000,9.802267,2.492325,-1.605885,5.917074,-0.715670
6.456000,9.972832,3.618368,-2.367421,5.198942,-0.673927
6.460000,9.707914,5.111549,-3.146368,4.334223,-0.603825
6.464000,8.846873,6.915564,-3.718878,3.095030,-0.505081
6.468000,7.336669,8.827465,-3.800975,1.353879,-0.378511
6.472000,5.265059,10.539334,-3.155307,-0.825649,-0.226040
6.476000,2.855165,11.718664,-1.690170,-3.172163,-0.050602
6.480000,0.421242,12.101486,0.485224,-5.270859,0.143866
6.484000,-1.702561,11.570739,3.071129,-6.690146,0.352676
6.488000,-3.239458,10.192686,5.650658,-7.120703,0.570435
6.492000,-4.032130,8.201288,7.802154,-6.478914,0.791337
6.496000,-4.073104,5.935144,9.214054,-4.934983,1.009257
6.500000,-3.494091,3.745004,9.764210,-2.854468,1.218030
6.504000,-2.518579,1.903196,9.536096,-0.677173,1.411696
6.508000,-1.392548,0.541451,8.769631,1.224188,1.584624
6.512000,-0.313967,-0.364047,7.764434,2.651678,1.731823
6.516000,0.618147,-0.956688,6.770988,3.617481,1.848984
6.520000,1.420713,-1.427193,5.907499,4.298170,1.932776
6.524000,2.204331,-1.928336,5.132566,4.925911,1.980864
6.528000,3.120207,-2.507599,4.281048,5.663383,1.992034
6.532000,4.293223,-3.079409,3.150825,6.510122,1.966225
6.536000,5.761884,-3.447568,1.605659,7.281607,1.904527
6.540000,7.444523,-3.370530,-0.342202,7.667921,1.809152
6.544000,9.142940,-2.648191,-2.502278,7.351536,1.683321
6.548000,10.584493,-1.201468,-4.541463,6.139064,1.531187
6.552000,11.489166,0.881425,-6.074004,4.056645,1.357670
6.556000,11.644919,3.349335,-6.777403,1.369416,1.168235
6.560000,10.966697,5.843026,-6.492664,-1.483438,0.968775
6.564000,9.524042,7.983395,-5.275980,-4.015189,0.765311
6.568000,7.527198,9.467231,-3.383236,-5.836128,0.563846
6.572000,5.277152,10.140548,-1.192817,-6.761915,0.370123
6.576000,3.091475,10.027875,0.907447,-6.849483,0.189424
6.580000,1.230148,9.307911,2.629935,-6.346747,0.026348
6.584000,-0.160845,8.246018,3.857219,-5.579060,-0.115281
6.588000,-1.069463,7.105058,4.649158,-4.817311,-0.232574
6.592000,-1.599437,6.063987,5.187919,-4.176881,-0.323693
6.596000,-1.918174,5.170584,5.681224,-3.588073,-0.387866
6.600000,-2.188714,4.342950,6.261234,-2.846615,-0.425429
6.604000,-2.507312,3.417764,6.916118,-1.723652,-0.437781
6.608000,-2.864815,2.229485,7.479882,-0.091583,-0.427309
6.612000,-3.145122,0.691171,7.685460,1.985807,-0.397316
6.616000,-3.160799,-1.148352,7.261849,4.236388,-0.351814
6.620000,-2.715328,-3.094358,6.041857,6.244802,-0.295456
6.624000,-1.672787,-4.845226,4.040566,7.577792,-0.233229
6.628000,-0.014420,-6.071073,1.476864,7.924490,-0.170338
6.632000,2.136609,-6.507552,-1.273283,7.199739,-0.111973
6.636000,4.530693,-6.034348,-3.775380,5.572045,-0.063049
6.640000,6.843250,-4.713903,-5.655308,3.405386,-0.028096
6.644000,8.748452,-2.778059,-6.698567,1.138443,-0.010987
6.648000,9.996003,-0.565686,-6.897927,-0.857151,-0.014835
6.652000,10.466412,1.568509,-6.432797,-2.383572,-0.041822
6.656000,10.192199,3.345653,-5.590700,-3.453595,-0.093139
6.660000,9.337559,4.626824,-4.658796,-4.243223,-0.168906
6.664000,8.144415,5.429863,-3.824684,-4.983934,-0.268154
6.668000,6.860306,5.896310,-3.120612,-5.836824,-0.388864
6.672000,5.670170,6.219103,-2.431010,-6.800329,-0.528031
6.676000,4.651840,6.557645,-1.558658,-7.688287,-0.681752
6.680000,3.768116,6.968929,-0.325120,-8.188915,-0.845368
6.684000,2.896266,7.377483,1.332941,-7.982976,-1.013633
6.688000,1.886302,7.595184,3.306772,-6.875800,-1.180941
6.692000,0.627805,7.384959,5.321028,-4.892162,-1.341449
6.696000,-0.894230,6.546636,7.001702,-2.296016,-1.489391
6.700000,-2.573227,4.997971,7.984365,0.473170,-1.619204
6.704000,-4.194032,2.821648,8.026603,2.929178,-1.725781
6.708000,-5.481557,0.263564,7.085307,4.681501,-1.804682
6.712000,-6.171405,-2.319918,5.332682,5.545307,-1.852245
6.716000,-6.082710,-4.549484,3.104869,5.576001,-1.865785
6.720000,-5.171286,-6.118626,0.801511,5.020092,-1.843652
6.724000,-3.547490,-6.869079,-1.231305,4.201355,-1.785341
6.728000,-1.453161,-6.821234,-2.792695,3.388813,-1.691489
6.732000,0.796122,-6.152289,-3.864704,2.696459,-1.563864
6.736000,2.886488,-5.130098,-4.583924,2.053241,-1.405336
6.740000,4.578727,-4.023661,-5.160292,1.253549,-1.219758
6.744000,5.757172,-3.020944,-5.773095,0.068056,-1.011814
6.748000,6.441057,-2.179258,-6.482857,-1.630923,-0.786926
6.752000,6.757332,-1.424168,-7.192852,-3.779888,-0.550950
6.756000,6.882945,-0.596416,-7.673717,-6.105771,-0.310152
6.760000,6.976523,0.470696,-7.644151,-8.192073,-0.070783
6.764000,7.118843,1.869211,-6.878391,-9.604271,0.160977
6.768000,7.281919,3.558450,-5.302599,-10.030068,0.379332
6.772000,7.335863,5.351909,-3.044584,-9.382454,0.579018
6.776000,7.091362,6.954247,-0.418608,-7.828249,0.755473
6.780000,6.365178,8.038899,2.153196,-5.730117,0.905049
6.784000,5.048633,8.341132,4.254805,-3.525110,1.025067
6.788000,3.157226,7.737511,5.590119,-1.583897,1.113944
6.792000,0.847640,6.286801,6.056104,-0.103798,1.171193
6.796000,-1.607890,4.218301,5.754790,0.927844,1.197473
6.800000,-3.879086,1.871258,4.938077,1.687029,1.194514
6.804000,-5.654317,-0.395881,3.908761,2.404327,1.165027
6.808000,-6.713315,-2.297985,2.911765,3.239938,1.112628
6.812000,-6.976317,-3.688642,2.055143,4.190595,1.041653
6.816000,-6.515214,-4.580230,1.287199,5.068555,0.956980
6.820000,-5.524277,-5.111873,0.437899,5.560403,0.863878
6.824000,-4.259837,-5.478654,-0.692435,5.345380,0.767719
6.828000,-2.966973,-5.846750,-2.229979,4.227134,0.673854
6.832000,-1.814828,-6.282436,-4.148495,2.229270,0.587339
6.836000,-0.858949,-6.720225,-6.244690,-0.384838,0.512772
6.840000,-0.041964,-6.980228,-8.179004,-3.176551,0.454077
6.844000,0.768682,-6.829826,-9.569343,-5.659572,0.414396
6.848000,1.719696,-6.069041,-10.106158,-7.442719,0.395933
6.852000,2.905157,-4.612160,-9.650530,-8.340380,0.399874
6.856000,4.316292,-2.536336,-8.279969,-8.406698,0.426347
6.860000,5.823509,-0.082098,-6.267159,-7.886782,0.474417
6.864000,7.198236,2.397573,-3.998069,-7.102630,0.542106
6.868000,8.167136,4.523062,-1.858328,-6.321726,0.626483
6.872000,8.485566,5.985478,-0.124121,-5.656403,0.723755
6.876000,8.006857,6.622013,1.102025,-5.034047,0.829461
6.880000,6.728290,6.449035,1.893651,-4.248160,0.938576
6.884000,4.799501,5.642432,2.440099,-3.068634,1.045756
6.888000,2.489949,4.472148,2.948426,-1.367491,1.145510
6.892000,0.125275,3.213359,3.543204,0.791470,1.232472
6.896000,-1.989610,2.062907,4.202115,3.134707,1.301523
6.900000,-3.640140,1.087546,4.751116,5.244917,1.348087
6.904000,-4.742469,0.220714,4.921670,6.685820,1.368237
6.908000,-5.346801,-0.693171,4.450478,7.143720,1.358893
6.912000,-5.601153,-1.821480,3.185752,6.529935,1.317961
6.916000,-5.689539,-3.261402,1.161559,5.009564,1.244394
6.920000,-5.763345,-4.980332,-1.386554,2.943626,1.138261
6.924000,-5.886627,-6.799841,-4.072622,0.767968,1.000791
6.928000,-6.012956,-8.431527,-6.463049,-1.147702,0.834271
6.932000,-6.000643,-9.552053,-8.194894,-2.606852,0.642062
6.936000,-5.661410,-9.896394,-9.072129,-3.622337,0.428415
6.940000,-4.828302,-9.338130,-9.107010,-4.369561,0.198400
6.944000,-3.421212,-7.932212,-8.494577,-5.078726,-0.042302
6.948000,-1.490366,-5.905134,-7.529728,-5.908642,-0.287634
6.952000,0.777400,-3.596273,-6.497925,-6.854781,-0.531272
6.956000,3.091391,-1.367362,-5.578033,-7.727909,-0.766964
6.960000,5.120719,0.489930,-4.791448,-8.212748,-0.988591
6.964000,6.572686,1.822576,-4.014574,-7.986964,-1.190557
6.968000,7.260879,2.637292,-3.049251,-6.852878,-1.367852
6.972000,7.146596,3.070596,-1.723735,-4.832746,-1.516289
6.976000,6.339842,3.319879,0.012658,-2.188878,-1.632606
6.980000,5.061954,3.557771,2.036965,0.640221,-1.714589
6.984000,3.579874,3.860065,4.064082,3.167930,-1.761159
6.988000,2.132400,4.171346,5.718670,5.003259,-1.772377
6.992000,0.869892,4.320096,6.645329,5.959368,-1.749433
6.996000,-0.174954,4.078267,6.618930,6.089256,-1.694618
7.000000,-1.078528,3.246427,5.617904,5.636311,-1.611179
7.004000,-1.981474,1.735202,3.833845,4.921091,-1.503253
7.008000,-3.024632,-0.383732,1.615262,4.209175,-1.375634
7.012000,-4.284339,-2.875529,-0.636561,3.611247,-1.233662
7.016000,-5.727980,-5.390090,-2.582902,3.053610,-1.082986
7.020000,-7.205069,-7.548754,-4.037042,2.328207,-0.929313
7.024000,-8.476873,-9.039735,-4.995963,1.204289,-0.778279
7.028000,-9.276519,-9.696042,-5.607135,-0.446658,-0.635137
7.032000,-9.382598,-9.529872,-6.083527,-2.560196,-0.504686
7.036000,-8.685100,-8.715581,-6.599612,-4.862640,-0.390955
7.040000,-7.222808,-7.525114,-7.206323,-6.935572,-0.297166
7.044000,-5.181980,-6.239685,-7.797154,-8.341589,-0.225556
7.048000,-2.855360,-5.064677,-8.137946,-8.765286,-0.177331
7.052000,-0.573736,-4.076451,-7.950781,-8.116433,-0.152618
7.056000,1.371966,-3.215971,-7.022070,-6.558437,-0.150461
7.060000,2.794903,-2.331769,-5.295946,-4.450883,-0.168863
7.064000,3.644983,-1.255474,-2.918980,-2.228158,-0.204900
7.068000,4.002330,0.115254,-0.218544,-0.258964,-0.254790
7.072000,4.033751,1.755519,2.378689,1.260571,-0.314087
7.076000,3.927494,3.495788,4.463681,2.343502,-0.377819
7.080000,3.825356,5.054278,5.755663,3.164920,-0.440734
7.084000,3.773735,6.111393,6.171652,3.954303,-0.497442
7.088000,3.708524,6.401835,5.831664,4.869294,-0.542672
7.092000,3.478505,5.796437,4.999118,5.904029,-0.571480
7.096000,2.899533,4.346175,3.979062,6.867392,-0.579395
7.100000,1.823515,2.274826,3.010471,7.442638,-0.562640
7.104000,0.200227,-0.078654,2.190628,7.305585,-0.518246
7.108000,-1.886340,-2.348758,1.457996,6.257031,-0.444199
7.112000,-4.221637,-4.238440,0.637785,4.318167,-0.339483
7.116000,-6.500988,-5.587586,-0.466521,1.750252,-0.204144
7.120000,-8.398721,-6.397137,-1.970727,-1.008847,-0.039266
7.124000,-9.645212,-6.801381,-3.834709,-3.472709,0.153071
7.128000,-10.090869,-6.999715,-5.842598,-5.249309,0.369846
7.132000,-9.738484,-7.171122,-7.649536,-6.151524,0.607254
7.136000,-8.734738,-7.400801,-8.877705,-6.231097,0.860870
7.140000,-7.324124,-7.643474,-9.231677,-5.729800,1.125806
7.144000,-5.780119,-7.736020,-8.592726,-4.966702,1.396898
7.148000,-4.331375,-7.455152,-7.059534,-4.205792,1.668957
7.152000,-3.107343,-6.602014,-4.920873,-3.556107,1.937010
7.156000,-2.116797,-5.083701,-2.569685,-2.942390,2.196441
7.160000,-1.265887,-2.966136,-0.387552,-2.155684,2.443297
7.164000,-0.407964,-0.478991,1.360527,-0.964448,2.674366
7.168000,0.589846,2.031860,2.587535,0.760031,2.887435
7.172000,1.784769,4.188212,3.380158,2.953372,3.081382
7.176000,3.121139,5.675943,3.934932,5.341365,3.256268
7.180000,4.429868,6.323618,4.457399,7.504124,3.413368
7.184000,5.465954,6.139820,5.064270,9.003283,3.555236
7.188000,5.973003,5.296958,5.722803,9.521775,3.685619
7.192000,5.756668,4.068881,6.251239,8.967664,3.809415
7.196000,4.745068,2.742467,6.380453,7.502597,3.932531
7.200000,3.018062,1.531883,5.855367,5.484530,4.061712
7.204000,0.795675,0.522497,4.539863,3.346698,4.204434
7.208000,-1.610511,-0.336727,2.487138,1.456597,4.368582
7.212000,-3.870016,-1.193461,-0.050649,0.009537,4.562330
7.216000,-5.710602,-2.216722,-2.679502,-1.007612,4.793816
7.220000,-6.975805,-3.513805,-4.967192,-1.769582,5.070944
7.224000,-7.649971,-5.068102,-6.563039,-2.505403,5.401132
7.228000,-7.841916,-6.718702,-7.289651,-3.371586,5.791117
7.232000,-7.734766,-8.190949,-7.179033,-4.360905,6.246742
7.236000,-7.517836,-9.168861,-6.441186,-5.280611,6.772715
7.240000,-7.321125,-9.387392,-5.377662,-5.812348,7.372590
7.244000,-7.172569,-8.714581,-4.271429,-5.630356,8.048594
7.248000,-6.991497,-7.197446,-3.292270,-4.533852,8.801575
7.252000,-6.619364,-5.056650,-2.450577,-2.542680,9.631018
7.256000,-5.879092,-2.631205,-1.615399,0.082409,10.534897
7.260000,-4.643702,-0.289188,-0.587618,2.904278,11.510023
7.264000,-2.894147,1.666615,0.797074,5.436324,12.551916
7.268000,-0.746121,3.069085,2.576379,7.286430,13.655051
7.272000,1.561386,3.913615,4.613931,8.266436,14.812994
7.276000,3.714380,4.331889,6.615168,8.426671,16.018402
7.280000,5.397321,4.525346,8.204488,8.007764,17.263542
7.284000,6.368193,4.679207,9.036267,7.326905,18.540304
7.288000,6.516682,4.888030,8.903520,6.646280,19.840460
7.292000,5.886928,5.116651,7.806013,6.073447,21.155614
7.296000,4.659818,5.210361,5.954505,5.531534,22.477809
7.300000,3.099656,4.950975,3.708848,4.810778,23.799373
7.304000,1.481628,4.139968,1.471371,3.678374,25.113153
7.308000,0.020732,2.680955,-0.428067,2.005296,26.412662
7.312000,-1.176397,0.634467,-1.816838,-0.143867,27.691854
7.316000,-2.124874,-1.776043,-2.707003,-2.494032,28.945624
7.320000,-2.934810,-4.208588,-3.256291,-4.625123,30.169480
7.324000,-3.756494,-6.285959,-3.680288,-6.097035,31.359624
7.328000,-4.712674,-7.691712,-4.148277,-6.591280,32.512908
7.332000,-5.840555,-8.250498,-4.701301,-6.014250,33.626500
7.336000,-7.062226,-7.966953,-5.223290,-4.525989,34.698212
7.340000,-8.192847,-7.011632,-5.475850,-2.482903,35.726028
7.344000,-8.984951,-5.660181,-5.185282,-0.316479,36.708184
7.348000,-9.196599,-4.205157,-4.150571,1.606114,37.642723
7.352000,-8.663539,-2.869039,-2.334006,3.090569,38.527787
7.356000,-7.353409,-1.746623,0.099585,4.150206,39.361187
7.360000,-5.385584,-0.794439,2.809965,4.959696,40.140448
7.364000,-3.010357,0.131043,5.367864,5.746875,40.862696
7.368000,-0.553495,1.199206,7.371569,6.667520,41.524489
7.372000,1.660186,2.522673,8.556786,7.712849,42.122046
7.376000,3.381051,4.092736,8.860560,8.688755,42.651077
7.380000,4.486110,5.757386,8.420617,9.275005,43.106917
7.384000,4.994034,7.248916,7.511212,9.144000,43.484498
7.388000,5.040520,8.255507,6.438992,8.093669,43.778608
7.392000,4.822264,8.512287,5.436293,6.142562,43.983963
7.396000,4.526619,7.884532,4.589665,3.550407,44.095331
7.400000,4.269680,6.415174,3.827610,0.753686,44.107792
7.404000,4.060541,4.321990,2.971314,-1.760862,44.016872
7.408000,3.803104,1.943039,1.827901,-3.600799,43.818731
7.412000,3.334152,-0.350837,0.292275,-4.576979,43.510409
7.416000,2.486313,-2.251303,-1.581394,-4.739019,43.089920
7.420000,1.155723,-3.584906,-3.565847,-4.325673,42.556459
7.424000,-0.645440,-4.341099,-5.311077,-3.652694,41.910576
7.428000,-2.771152,-4.649398,-6.444581,-2.980619,41.154182
7.432000,-4.961733,-4.712916,-6.685772,-2.415278,40.290639
7.436000,-6.899517,-4.723159,-5.936468,-1.878384,39.324752
7.440000,-8.283567,-4.783980,-4.316258,-1.158899,38.262958
7.444000,-8.903511,-4.870419,-2.129245,-0.023423,37.112920
7.448000,-8.689937,-4.836445,0.225779,1.657410,35.883644
7.452000,-7.727807,-4.468987,2.371637,3.819181,34.585284
7.456000,-6.229200,-3.569998,4.056146,6.186306,33.228837
7.460000,-4.474243,-2.040119,5.207451,8.337333,31.826328
7.464000,-2.735565,0.066139,5.925552,9.831245,30.389984
7.468000,-1.211275,2.531233,6.413018,10.347940,28.932402
7.472000,0.016960,5.017413,6.873778,9.792146,27.466093
7.476000,0.987401,7.148502,7.416445,8.322171,26.003223
7.480000,1.824897,8.606070,7.997845,6.292818,24.555630
7.484000,2.680832,9.210986,8.429031,4.134520,23.134066
7.488000,3.665841,8.963811,8.440964,2.212965,21.748369
7.492000,4.796609,8.033059,7.787461,0.721844,20.407030
7.496000,5.974194,6.696083,6.348621,-0.352171,19.117423
7.500000,7.000703,5.250585,4.196482,-1.183628,17.885157
7.504000,7.630097,3.927252,1.598945,-1.999622,16.714365
7.508000,7.638819,2.830241,-1.041876,-2.955048,15.607589
7.512000,6.895202,1.923543,-3.297233,-4.039740,14.565738
7.516000,5.406738,1.068030,-4.828887,-5.057731,13.588417
7.520000,3.330519,0.093534,-5.478821,-5.687281,12.673680
7.524000,0.943397,-1.117572,-5.298515,-5.599223,11.818395
7.528000,-1.420419,-2.564834,-4.512372,-4.589751,11.018394
7.532000,-3.446631,-4.104839,-3.427841,-2.676153,10.268782
7.536000,-4.912336,-5.477709,-2.324646,-0.117378,9.563988
7.540000,-5.729657,-6.375677,-1.363042,2.650712,8.898107
7.544000,-5.951682,-6.534399,-0.542496,5.141589,8.265193
7.548000,-5.738929,-5.816413,0.275512,6.962578,7.659373
7.552000,-5.298366,-4.260865,1.289836,7.923426,7.075284
7.556000,-4.812642,-2.082000,2.657212,8.072654,6.508029
7.560000,-4.382083,0.382833,4.402284,7.647834,5.953493
7.564000,-3.996929,2.760278,6.375408,6.962897,5.408467
7.568000,-3.547095,4.736888,8.273865,6.276697,4.870696
7.572000,-2.867377,6.132357,9.722324,5.693502,4.339073
7.576000,-1.802819,6.930835,10.385983,5.133559,3.813453
7.580000,-0.274548,7.259135,10.076407,4.384668,3.294754
7.584000,1.674630,7.322050,8.814810,3.212622,2.784844
7.588000,3.870273,7.317234,6.830531,1.487672,2.286501
7.592000,6.036265,7.357704,4.493876,-0.725660,1.803158
7.596000,7.855778,7.428681,2.207392,-3.151206,1.338776
7.600000,9.047660,7.392803,0.291725,-5.366696,0.897693
7.604000,9.436330,7.042119,-1.095872,-6.929990,0.484342
7.608000,8.994207,6.179424,-1.981926,-7.519096,0.103162
7.612000,7.845678,4.701889,-2.534119,-7.037215,-0.241729
7.616000,6.231020,2.658227,-2.969993,-5.641033,-0.546693
7.620000,4.441065,0.259654,-3.453128,-3.683681,-0.808707
7.624000,2.741773,-2.160469,-4.014681,-1.593899,-1.025572
7.628000,1.311266,-4.227120,-4.529144,0.263415,-1.195942
7.632000,0.205098,-5.620575,-4.754548,1.695018,-1.319520
7.636000,-0.637892,-6.157793,-4.421974,2.715036,-1.397018
7.640000,-1.355383,-5.835334,-3.343578,3.497645,-1.430191
7.644000,-2.097367,-4.819911,-1.500044,4.269445,-1.421772
7.648000,-2.960731,-3.390040,0.926198,5.183943,-1.375438
7.652000,-3.941373,-1.848681,3.582949,6.229861,-1.295628
7.656000,-4.921078,-0.434725,6.038852,7.209877,-1.187470
7.660000,-5.692042,0.738788,7.901352,7.800282,-1.056511
7.664000,-6.013522,1.699859,8.922769,7.670498,-0.908653
7.668000,-5.683906,2.583553,9.060424,6.615057,-0.749783
7.672000,-4.606353,3.560549,8.469535,4.650054,-0.585702
7.676000,-2.827935,4.753412,7.434350,2.033129,-0.421802
7.680000,-0.541309,6.169672,6.262394,-0.799676,-0.262954
7.684000,1.954685,7.675040,5.178885,-3.362390,-0.113277
7.688000,4.322208,9.017222,4.259457,-5.261777,0.024037
7.692000,6.262867,9.892852,3.422929,-6.307035,0.146793
7.696000,7.583810,10.038166,2.486685,-6.545259,0.253940
7.700000,8.233547,9.313140,1.262263,-6.212641,0.345572
7.704000,8.298476,7.752840,-0.344474,-5.621457,0.422982
7.708000,7.961651,5.568051,-2.265527,-5.028849,0.488625
7.712000,7.436924,3.095147,-4.262251,-4.537462,0.546008
7.716000,6.899176,0.709275,-5.981117,-4.065948,0.599642
7.720000,6.431513,-1.270536,-7.055458,-3.400800,0.654840
7.724000,6.005286,-2.658068,-7.220156,-2.307149,0.717563
7.728000,5.498269,-3.431843,-6.397979,-0.654831,0.794283
7.732000,4.745596,-3.715974,-4.728931,1.491974,0.891666
7.736000,3.607180,-3.716857,-2.531780,3.856297,1.016459
7.740000,2.030510,-3.638195,-0.210144,6.015192,1.175184
7.744000,0.088403,-3.602117,1.864263,7.525014,1.374009
7.748000,-2.019551,-3.604082,3.452229,8.062663,1.618490
7.752000,-4.005085,-3.515523,4.497838,7.529502,1.913458
7.756000,-5.557050,-3.133714,5.113572,6.080603,2.262778
7.760000,-6.418627,-2.262378,5.508025,4.067530,2.669350
7.764000,-6.451794,-0.795381,5.882797,1.917733,3.134976
7.768000,-5.671451,1.224471,6.337885,-0.005104,3.660328
7.772000,-4.239310,3.592393,6.820068,-1.508463,4.244999
7.776000,-2.420096,5.979387,7.133572,-2.606493,4.887399
7.780000,-0.511002,8.012609,7.010133,-3.473255,5.585021
7.784000,1.232672,9.370568,6.213222,-4.334639,6.334471
7.788000,2.656249,9.866672,4.639260,-5.343311,7.131616
7.792000,3.730377,9.493502,2.379180,-6.486462,7.971617
7.796000,4.538591,8.415656,-0.283921,-7.565056,8.849381
7.800000,5.228838,6.912741,-2.941244,-8.253899,9.759495
7.804000,5.947587,5.292897,-5.167894,-8.220548,10.696557
7.808000,6.776360,3.802732,-6.639794,-7.258029,11.655318
7.812000,7.690292,2.564575,-7.217882,-5.381094,12.630690
7.816000,8.553519,1.557909,-6.973214,-2.846473,13.618176
7.820000,9.151668,0.652029,-6.144188,-0.089390,14.613806
7.824000,9.253155,-0.324122,-5.043180,2.404244,15.614234
7.828000,8.681440,-1.498043,-3.945958,4.240979,16.616887
7.832000,7.375852,-2.885344,-3.002990,5.229106,17.619709
7.836000,5.422641,-4.361026,-2.202725,5.414751,18.621521
7.840000,3.046375,-5.680464,-1.399769,5.032574,19.621696
7.844000,0.563442,-6.544918,-0.395530,4.393394,20.620220
7.848000,-1.690066,-6.691284,0.958407,3.752725,21.617287
7.852000,-3.436268,-5.977120,2.673776,3.211481,22.613565
7.856000,-4.515419,-4.433329,4.587708,2.686889,23.609720
7.860000,-4.913532,-2.267068,6.389810,1.964299,24.606377
7.864000,-4.748965,0.186721,7.706660,0.807946,25.603928
7.868000,-4.224231,2.550498,8.214653,-0.912701,26.602151
7.872000,-3.556835,4.501019,7.744466,-3.133305,27.600428
7.876000,-2.911176,5.845685,6.338873,-5.576640,28.597292
7.880000,-2.351804,6.557552,4.244862,-7.818863,29.590488
7.884000,-1.831683,6.757917,1.842605,-9.414734,30.576608
7.888000,-1.218349,6.654943,-0.466366,-10.039891,31.551422
7.892000,-0.350100,6.458044,-2.371652,-9.593985,32.509608
7.896000,0.896188,6.298560,-3.730924,-8.230297,33.444854
7.900000,2.546164,6.182126,-4.585814,-6.298743,34.349970
7.904000,4.497729,5.989071,-5.113122,-4.225569,35.216813
7.908000,6.529256,5.522074,-5.532019,-2.373072,36.036726
7.912000,8.344674,4.585862,-5.999921,-0.933044,36.800560
7.916000,9.643875,3.070906,-6.537893,0.108698,37.498879
7.920000,10.198278,1.014203,-7.011605,0.926486,38.122297
7.924000,9.909452,-1.385589,-7.175851,1.745516,38.661515
7.928000,8.834490,-3.804872,-6.767305,2.717320,39.107891
7.932000,7.170260,-5.872573,-5.611904,3.827783,39.453445
7.936000,5.201132,-7.265962,-3.708270,4.876599,39.691245
7.940000,3.226422,-7.794720,-1.256739,5.536639,39.815482
7.944000,1.486427,-7.447713,1.379544,5.473889,39.821853
7.948000,0.110512,-6.387155,3.768516,4.479942,39.707562
7.952000,-0.899468,-4.893710,5.527155,2.568086,39.471534
7.956000,-1.647642,-3.280077,6.425628,-0.005972,39.114415
7.960000,-2.289945,-1.800909,6.441232,-2.807476,38.638709
7.964000,-2.967044,-0.587137,5.746362,-5.350425,38.048620
7.968000,-3.743573,0.373957,4.634587,-7.241282,37.350064
7.972000,-4.574659,1.208917,3.413357,-8.287669,36.550507
7.976000,-5.308941,2.089057,2.300162,-8.534488,35.658785
7.980000,-5.728578,3.146730,1.359511,-8.214968,34.685063
7.984000,-5.614955,4.405759,0.500941,-7.638306,33.640341
7.988000,-4.819399,5.750488,-0.461283,-7.058204,32.536323
7.992000,-3.318205,6.944201,-1.711331,-6.573933,31.385105
7.996000,-1.235508,7.692970,-3.331759,-6.101515,30.199096
8.000000,1.175500,7.734676,-5.240971,-5.424655,28.990337
8.004000,3.585945,6.924557,-7.189655,-4.306891,27.770541
8.008000,5.667243,5.289377,-8.821249,-2.617072,26.550706
8.012000,7.166150,3.032517,-9.776400,-0.419725,25.340873
8.016000,7.958538,0.487643,-9.805862,2.007569,24.150173
8.020000,8.067905,-1.966387,-8.853539,4.240062,22.986276
8.024000,7.643052,-4.001609,-7.079707,5.831494,21.855544
8.028000,6.902631,-5.419390,-4.816732,6.455827,20.762845
8.032000,6.064447,-6.187087,-2.472507,6.011163,19.711786
8.036000,5.279810,-6.423482,-0.412076,4.649072,18.704382
8.040000,4.593758,-6.337900,1.138869,2.717953,17.741335
8.044000,3.941542,-6.145544,2.140119,0.642482,16.822157
8.048000,3.182555,-5.986773,2.716756,-1.216178,15.945200
8.052000,2.160760,-5.877419,3.082481,-2.666730,15.108111
8.056000,0.772334,-5.706571,3.436071,-3.723942,14.307667
8.060000,-0.981210,-5.282512,3.868752,-4.561806,13.540257
8.064000,-2.970403,-4.410954,4.317166,-5.404992,12.801986
8.068000,-4.954944,-2.979148,4.579330,-6.404110,12.088924
8.072000,-6.635557,-1.018169,4.388372,-7.543633,11.397439
8.076000,-7.727702,1.280258,3.518062,-8.621740,10.724138
8.080000,-8.034696,3.597616,1.881456,-9.309645,10.066224
8.084000,-7.499336,5.565180,-0.412252,-9.271570,9.421515
8.088000,-6.219962,6.858907,-3.065191,-8.297622,8.788726
8.092000,-4.425261,7.285428,-5.662835,-6.399725,8.167275
8.096000,-2.415252,6.829627,-7.785405,-3.832685,7.557469
8.100000,-0.486022,5.651354,-9.123349,-1.030434,6.960438
8.104000,1.140905,4.032173,-9.557596,1.521250,6.378023
8.108000,2.363148,2.289506,-9.178278,3.428192,5.812830
8.112000,3.206614,0.685438,-8.237111,4.497542,5.267917
8.116000,3.794336,-0.640235,-7.050824,4.773095,4.746711
8.120000,4.288025,-1.692508,-5.890653,4.486527,4.252895
8.124000,4.820201,-2.593586,-4.896581,3.945619,3.790083
8.128000,5.437830,-3.514771,-4.046320,3.402280,3.361862
8.132000,6.076497,-4.593409,-3.187997,2.954165,2.971319
8.136000,6.571772,-5.861513,-2.124057,2.515628,2.621085
8.140000,6.706070,-7.212740,-0.714441,1.869322,2.313060
8.144000,6.277143,-8.418230,1.039212,0.777799,2.048389
8.148000,5.166422,-9.189248,2.961447,-0.890563,1.827259
8.152000,3.387945,-9.264661,4.734995,-3.071181,1.648884
8.156000,1.101299,-8.497283,5.988695,-5.486268,1.511486
8.160000,-1.415348,-6.909723,6.411477,-7.710195,1.412293
8.164000,-3.825914,-4.701704,5.853310,-9.295355,1.347600
8.168000,-5.814200,-2.204734,4.378321,-9.914329,1.312864
8.172000,-7.155521,0.200867,2.250930,-9.463604,1.302797
8.176000,-7.763652,2.182954,-0.140472,-8.093013,1.311578
8.180000,-7.699058,3.536688,-2.395902,-6.149319,1.332996
8.184000,-7.138410,4.224313,-4.216006,-4.056006,1.360617
8.188000,-6.313187,4.361799,-5.474043,-2.172968,1.388081
8.192000,-5.437793,4.159791,-6.226267,-0.690574,1.409210
8.196000,-4.648191,3.839087,-6.658646,0.406206,1.418312
8.200000,-3.969092,3.549050,-6.990892,1.290881,1.410267
8.204000,-3.318968,3.315689,-7.374086,2.187854,1.380814
8.208000,-2.551434,3.037086,-7.819257,3.246729,1.326590
8.212000,-1.518380,2.527223,-8.183424,4.450693,1.245327
8.216000,-0.136563,1.592676,-8.219005,5.596242,1.135871
8.220000,1.565049,0.118119,-7.668885,6.352954,0.998265
8.224000,3.431677,-1.871760,-6.373189,6.383352,0.833702
8.228000,5.208100,-4.191956,-4.349011,5.475928,0.644503
8.232000,6.596973,-6.529510,-1.813280,3.641209,0.434002
8.236000,7.333738,-8.517632,0.860417,1.133119,0.206515
8.240000,7.256683,-9.831971,3.240045,-1.615241,-0.032960
8.244000,6.350831,-10.275692,4.953335,-4.118204,-0.278793
8.248000,4.754328,-9.829816,5.788470,-5.981411,-0.525038
8.252000,2.723864,-8.651653,5.743210,-7.011436,-0.765547
8.256000,0.570622,-7.023616,5.006320,-7.250735,-0.994232
8.260000,-1.417018,-5.267200,3.880076,-6.929991,-1.205332
8.264000,-3.039588,-3.651958,2.671097,-6.355076,-1.393526
8.268000,-4.223957,-2.326351,1.588657,-5.776395,-1.554222
8.272000,-5.022869,-1.292958,0.685718,-5.289886,-1.683636
8.276000,-5.576287,-0.434068,-0.137147,-4.808399,-1.778964
8.280000,-6.049116,0.421759,-1.068608,-4.113675,-1.838485
8.284000,-6.563405,1.416711,-2.287344,-2.966950,-1.861606
8.288000,-7.148004,2.591086,-3.864741,-1.236168,-1.848877
8.292000,-7.719709,3.847695,-5.705435,1.013949,-1.801966
8.296000,-8.103628,4.966293,-7.550268,3.505024,-1.723608
8.300000,-8.085791,5.663101,-9.040630,5.810721,-1.617455
8.304000,-7.483400,5.678395,-9.825098,7.482520,-1.488003
8.308000,-6.209793,4.862713,-9.671243,8.191187,-1.340344
8.312000,-4.316473,3.234593,-8.544130,7.831562,-1.180052
8.316000,-1.996152,0.989490,-6.623918,6.551847,-1.012939
8.320000,0.452536,-1.542890,-4.256107,4.697166,-0.844808
8.324000,2.691984,-3.981261,-1.851104,2.689264,-0.681319
8.328000,4.423303,-5.989352,0.233060,0.887117,-0.527682
8.332000,5.453906,-7.356556,1.784561,-0.519675,-0.388599
8.336000,5.736579,-8.039816,2.779356,-1.546647,-0.267943
8.340000,5.368287,-8.152085,3.354472,-2.367372,-0.168744
8.344000,4.550604,-7.905202,3.728387,-3.205486,-0.093013
8.348000,3.524297,-7.525613,4.096375,-4.209779,-0.041727
8.352000,2.497135,-7.171388,4.540655,-5.362184,-0.014763
8.356000,1.587581,-6.878712,4.987914,-6.457676,-0.010939
8.360000,0.799557,-6.554719,5.230408,-7.164232,-0.028055
8.364000,0.036261,-6.019057,5.003342,-7.142689,-0.063029
8.368000,-0.852421,-5.079802,4.091174,-6.179918,-0.111947
8.372000,-2.003735,-3.618179,2.424072,-4.285383,-0.170330
8.376000,-3.479208,-1.652911,0.129640,-1.711683,-0.233219
8.380000,-5.223186,0.638136,-2.481136,1.108830,-0.295449
8.384000,-7.057582,2.947092,-4.988482,3.690285,-0.351822
8.388000,-8.716388,4.910434,-6.978890,5.638098,-0.397310
8.392000,-9.908652,6.203075,-8.158150,6.758237,-0.427314
8.396000,-10.394190,6.624973,-8.427278,7.092243,-0.437783
8.400000,-10.048592,6.153262,-7.895404,6.869061,-0.425437
8.404000,-8.899305,4.942957,-6.826918,6.393135,-0.387869
8.408000,-7.122041,3.276668,-5.542032,5.913118,-0.323693
8.412000,-4.997759,1.480098,-4.306729,5.523288,-0.232574
8.416000,-2.843300,-0.169997,-3.250496,5.134873,-0.115281
8.420000,-0.934856,-1.516644,-2.340208,4.528230,0.026350
8.424000,0.553183,-2.549504,-1.417796,3.463822,0.189420
8.428000,1.578016,-3.381828,-0.287287,1.809088,0.370133
8.432000,2.218565,-4.185433,1.182313,-0.371606,0.563846
8.436000,2.629695,-5.107046,2.976468,-2.799476,0.765322
8.440000,2.976723,-6.195028,4.907176,-5.047312,0.968773
8.444000,3.369618,-7.361884,6.651118,-6.665302,1.168244
8.448000,3.818347,-8.395728,7.840479,-7.323026,1.357668
8.452000,4.222523,-9.018135,8.177267,-6.913721,1.531197
8.456000,4.399467,-8.970825,7.531262,-5.583696,1.683330
8.460000,4.142384,-8.102230,5.987797,-3.676700,1.809152
8.464000,3.290598,-6.426661,3.828077,-1.612926,1.904532
8.468000,1.791120,-4.135393,1.448013,0.249553,1.966225
8.472000,-0.268323,-1.555885,-0.755497,1.722301,1.992035
8.476000,-2.664614,0.929901,-2.494705,2.820992,1.980864
